Data from zc_m1_p5_Reflection_5,txt Node
Date: Wed Nov 25 16:40:35 GMT-03:00 2020
User: Darío
Spectrometer: USB2E3644
Trigger mode: 4
Integration Time (sec): 9,000000E-2
Scans to average: 10
Electric dark correction enabled: true
Nonlinearity correction enabled: false
Boxcar width: 10
XAxis mode: Wavelengths
Number of Pixels in Spectrum: 2048
>>>>>Begin Spectral Data<<<<<
178,315	161,84
178,696	130,28
179,076	154,59
179,457	203,45
179,838	282,81
180,218	352,27
180,599	199,44
180,979	20
181,36	34,18
181,74	35,27
182,121	56,99
182,501	67,1
182,881	73,03
183,262	76,89
183,642	85,24
184,022	80,23
184,402	84,46
184,783	93,99
185,163	99,04
185,543	106,19
185,923	115,57
186,303	119,44
186,683	117,83
187,063	122,43
187,443	127,99
187,823	124,13
188,203	124,63
188,583	122,53
188,963	120,39
189,343	121,43
189,723	122,85
190,102	125,5
190,482	127,47
190,862	125,71
191,242	123,11
191,621	124,22
192,001	128,28
192,38	128,97
192,76	126,51
193,14	122,42
193,519	118,08
193,898	114,68
194,278	114,49
194,657	114,15
195,037	111,98
195,416	111,52
195,795	113,46
196,175	113,42
196,554	111,95
196,933	110,4
197,312	108,45
197,692	107,15
198,071	105,95
198,45	105,95
198,829	106,06
199,208	107,19
199,587	106,32
199,966	104,25
200,345	102,07
200,724	100,39
201,103	102,17
201,482	105,27
201,86	106,07
202,239	104,04
202,618	103,81
202,997	105,1
203,375	104,78
203,754	104,93
204,133	105,94
204,511	105,87
204,89	106,47
205,269	108,54
205,647	110,58
206,026	112,47
206,404	114,68
206,782	116,63
207,161	115,78
207,539	116,01
207,918	116,89
208,296	117,55
208,674	120,89
209,052	122,48
209,431	121,07
209,809	120,5
210,187	121,17
210,565	121,45
210,943	122,03
211,321	121,18
211,699	121,47
212,077	124,57
212,455	128,07
212,833	131,06
213,211	130,77
213,589	131,52
213,967	129,83
214,345	127,51
214,722	128,18
215,1	128,91
215,478	128,1
215,855	128,55
216,233	133,26
216,611	133,92
216,988	130,42
217,366	129,06
217,743	130
218,121	130
218,498	131,67
218,876	129,62
219,253	132,09
219,631	132,92
220,008	130,07
220,385	129,32
220,762	127,51
221,14	128,28
221,517	127,76
221,894	127,09
222,271	129,53
222,648	131,81
223,025	134,69
223,402	138,78
223,78	136,02
224,157	130,3
224,533	129,46
224,91	130,21
225,287	134,06
225,664	137,19
226,041	142,2
226,418	146,32
226,795	149,58
227,171	147,43
227,548	148,76
227,925	152,86
228,301	152,71
228,678	157,92
229,055	158,65
229,431	159,19
229,808	166,2
230,184	171,47
230,561	173,44
230,937	175,44
231,313	176,5
231,69	187,03
232,066	193,09
232,442	199,42
232,819	210,47
233,195	210,05
233,571	209,49
233,947	214,09
234,323	211,17
234,699	221,12
235,075	228,93
235,451	236,4
235,827	242,59
236,203	255,56
236,579	260,27
236,955	281,09
237,331	305,54
237,707	326,4
238,083	357,59
238,459	449,8
238,834	760,49
239,21	2176,17
239,586	-2711,18
239,961	-895,56
240,337	-627,26
240,713	-471,53
241,088	-366,31
241,464	-315,34
241,839	-276,35
242,215	-231,03
242,59	-190,29
242,965	-137,02
243,341	-98,74
243,716	-76,78
244,091	-63,84
244,467	-55,48
244,842	-50,5
245,217	-47,3
245,592	-45,94
245,967	-46,03
246,343	-44,63
246,718	-44,78
247,093	-45,87
247,468	-46,72
247,843	-46,76
248,218	-44,8
248,593	-44,01
248,967	-42,33
249,342	-39,97
249,717	-38,89
250,092	-39,3
250,467	-39,65
250,841	-42,41
251,216	-47,42
251,591	-51,74
251,965	-56,9
252,34	-63,86
252,714	-67,62
253,089	-70,51
253,463	-70,52
253,838	-66,3
254,212	-63,48
254,587	-60,86
254,961	-58,57
255,335	-55,82
255,71	-48,66
256,084	-39,5
256,458	-33,05
256,832	-28,41
257,206	-26,37
257,581	-24,68
257,955	-23,94
258,329	-23,64
258,703	-22,33
259,077	-21,12
259,451	-20,82
259,825	-20,68
260,199	-20,33
260,572	-20,88
260,946	-21,34
261,32	-21,74
261,694	-22,01
262,068	-22,27
262,441	-21,42
262,815	-20,22
263,189	-19,36
263,562	-19,08
263,936	-20,1
264,309	-21,12
264,683	-22,65
265,056	-23,08
265,43	-22,35
265,803	-20,87
266,176	-19,89
266,55	-19,8
266,923	-19
267,296	-18,35
267,67	-17,92
268,043	-17,47
268,416	-16,24
268,789	-14,84
269,162	-13,64
269,535	-12,58
269,908	-11,68
270,281	-11,89
270,654	-12,15
271,027	-12,26
271,4	-12,68
271,773	-13,27
272,146	-13,85
272,519	-14,24
272,891	-14,72
273,264	-15,73
273,637	-16,42
274,01	-16,63
274,382	-16,62
274,755	-17,07
275,127	-17,53
275,5	-17,52
275,872	-17,23
276,245	-17,14
276,617	-17,83
276,99	-18,53
277,362	-19,11
277,734	-19,17
278,107	-19
278,479	-18,35
278,851	-17,78
279,223	-16,88
279,596	-16,11
279,968	-15,1
280,34	-14,33
280,712	-13,69
281,084	-13,03
281,456	-12,32
281,828	-11,75
282,2	-11,32
282,572	-10,65
282,944	-9,81
283,315	-9,34
283,687	-9,01
284,059	-8,74
284,431	-8,11
284,802	-7,88
285,174	-7,66
285,546	-7,52
285,917	-7,31
286,289	-7,19
286,66	-6,85
287,032	-6,65
287,403	-6,52
287,775	-6,24
288,146	-6,27
288,518	-6,45
288,889	-6,58
289,26	-6,4
289,632	-6,3
290,003	-6,6
290,374	-7,15
290,745	-7,65
291,116	-7,66
291,487	-7,41
291,858	-7,44
292,229	-7,4
292,6	-6,9
292,971	-6,82
293,342	-6,64
293,713	-6,19
294,084	-6
294,455	-6,06
294,826	-6,11
295,196	-6,18
295,567	-6,37
295,938	-6,05
296,308	-5,96
296,679	-5,67
297,05	-5,65
297,42	-5,68
297,791	-5,43
298,161	-4,95
298,532	-4,55
298,902	-4,47
299,272	-4,44
299,643	-4,32
300,013	-4,28
300,383	-4,45
300,754	-4,3
301,124	-4,39
301,494	-4,48
301,864	-4,43
302,234	-4,31
302,604	-3,97
302,974	-3,69
303,344	-3,5
303,714	-3,42
304,084	-3,08
304,454	-2,86
304,824	-2,81
305,194	-2,84
305,563	-2,74
305,933	-2,55
306,303	-2,34
306,673	-2,17
307,042	-2,35
307,412	-2,47
307,781	-2,35
308,151	-2,07
308,521	-1,85
308,89	-1,7
309,259	-1,77
309,629	-1,73
309,998	-1,73
310,368	-1,82
310,737	-1,93
311,106	-2,24
311,475	-2,46
311,845	-2,58
312,214	-2,74
312,583	-2,8
312,952	-2,61
313,321	-2,54
313,69	-2,76
314,059	-2,96
314,428	-2,8
314,797	-2,43
315,166	-2,14
315,535	-2,14
315,904	-2,21
316,272	-2,39
316,641	-2,21
317,01	-2,09
317,379	-2,08
317,747	-2,19
318,116	-2,26
318,484	-2,18
318,853	-1,96
319,221	-1,83
319,59	-1,54
319,958	-1,37
320,327	-1,14
320,695	-1,1
321,063	-0,92
321,432	-0,6
321,8	-0,48
322,168	-0,6
322,536	-0,77
322,905	-1
323,273	-1,1
323,641	-1,16
324,009	-1,06
324,377	-1,06
324,745	-1
325,113	-0,82
325,481	-0,61
325,849	-0,53
326,216	-0,46
326,584	-0,43
326,952	-0,36
327,32	-0,46
327,687	-0,4
328,055	-0,3
328,423	-0,3
328,79	-0,43
329,158	-0,57
329,525	-0,51
329,893	-0,42
330,26	-0,27
330,628	0,02
330,995	0,22
331,362	0,35
331,73	0,57
332,097	0,75
332,464	0,95
332,831	0,89
333,199	1,04
333,566	1,17
333,933	1,3
334,3	1,43
334,667	1,58
335,034	1,71
335,401	1,75
335,768	1,72
336,135	1,93
336,502	2,18
336,868	2,35
337,235	2,41
337,602	2,49
337,969	2,58
338,335	2,67
338,702	2,71
339,069	2,8
339,435	2,8
339,802	2,8
340,168	2,8
340,535	2,88
340,901	2,88
341,267	2,84
341,634	2,93
342	3,06
342,366	3,11
342,733	3,05
343,099	3,12
343,465	3,21
343,831	3,2
344,197	3,14
344,563	3,23
344,929	3,29
345,295	3,33
345,661	3,3
346,027	3,31
346,393	3,42
346,759	3,48
347,125	3,5
347,491	3,57
347,856	3,65
348,222	3,8
348,588	3,86
348,953	3,98
349,319	4,01
349,684	3,99
350,05	3,88
350,415	4,07
350,781	4,17
351,146	4,23
351,512	4,29
351,877	4,34
352,242	4,35
352,608	4,44
352,973	4,45
353,338	4,47
353,703	4,45
354,068	4,4
354,433	4,44
354,798	4,48
355,164	4,37
355,528	4,32
355,893	4,26
356,258	4,27
356,623	4,21
356,988	4,23
357,353	4,28
357,718	4,41
358,082	4,43
358,447	4,38
358,812	4,38
359,176	4,45
359,541	4,55
359,905	4,6
360,27	4,6
360,634	4,66
360,999	4,72
361,363	4,8
361,728	4,92
362,092	4,99
362,456	5,01
362,821	5,14
363,185	5,25
363,549	5,3
363,913	5,38
364,277	5,47
364,641	5,53
365,005	5,59
365,369	5,59
365,733	5,6
366,097	5,72
366,461	5,75
366,825	5,82
367,189	5,89
367,553	6,01
367,916	6,11
368,28	6,16
368,644	6,29
369,007	6,37
369,371	6,38
369,734	6,46
370,098	6,59
370,461	6,65
370,825	6,7
371,188	6,77
371,552	6,89
371,915	6,96
372,278	7,08
372,642	7,21
373,005	7,27
373,368	7,31
373,731	7,33
374,094	7,41
374,457	7,45
374,82	7,51
375,183	7,58
375,546	7,6
375,909	7,63
376,272	7,64
376,635	7,72
376,998	7,8
377,361	7,82
377,723	7,87
378,086	7,93
378,449	8,02
378,811	8,06
379,174	8,07
379,537	8,16
379,899	8,15
380,262	8,14
380,624	8,21
380,987	8,27
381,349	8,33
381,711	8,37
382,074	8,34
382,436	8,34
382,798	8,4
383,16	8,46
383,522	8,49
383,884	8,49
384,247	8,47
384,609	8,53
384,971	8,57
385,333	8,55
385,695	8,56
386,056	8,52
386,418	8,53
386,78	8,55
387,142	8,49
387,504	8,49
387,865	8,54
388,227	8,55
388,589	8,58
388,95	8,6
389,312	8,6
389,673	8,63
390,035	8,6
390,396	8,5
390,758	8,5
391,119	8,55
391,48	8,6
391,842	8,61
392,203	8,57
392,564	8,59
392,925	8,65
393,286	8,63
393,648	8,66
394,009	8,68
394,37	8,74
394,731	8,81
395,092	8,81
395,452	8,8
395,813	8,8
396,174	8,84
396,535	8,89
396,896	8,97
397,257	9,04
397,617	9,12
397,978	9,25
398,338	9,29
398,699	9,31
399,06	9,34
399,42	9,34
399,781	9,36
400,141	9,36
400,501	9,34
400,862	9,38
401,222	9,4
401,582	9,4
401,943	9,34
402,303	9,31
402,663	9,33
403,023	9,36
403,383	9,4
403,743	9,41
404,103	9,39
404,463	9,4
404,823	9,37
405,183	9,37
405,543	9,32
405,903	9,31
406,262	9,27
406,622	9,25
406,982	9,25
407,342	9,3
407,701	9,3
408,061	9,31
408,42	9,33
408,78	9,32
409,139	9,34
409,499	9,37
409,858	9,43
410,217	9,44
410,577	9,43
410,936	9,39
411,295	9,38
411,655	9,36
412,014	9,32
412,373	9,3
412,732	9,26
413,091	9,23
413,45	9,19
413,809	9,17
414,168	9,14
414,527	9,08
414,886	9,03
415,245	9,02
415,603	8,99
415,962	8,96
416,321	8,93
416,679	8,89
417,038	8,86
417,397	8,79
417,755	8,73
418,114	8,7
418,472	8,7
418,831	8,69
419,189	8,67
419,547	8,65
419,906	8,63
420,264	8,62
420,622	8,6
420,981	8,6
421,339	8,6
421,697	8,6
422,055	8,63
422,413	8,65
422,771	8,64
423,129	8,66
423,487	8,68
423,845	8,7
424,203	8,71
424,56	8,73
424,918	8,76
425,276	8,82
425,634	8,85
425,991	8,86
426,349	8,89
426,707	8,93
427,064	8,96
427,422	9,02
427,779	9,08
428,137	9,16
428,494	9,24
428,851	9,28
429,209	9,3
429,566	9,29
429,923	9,28
430,28	9,29
430,637	9,3
430,995	9,29
431,352	9,3
431,709	9,33
432,066	9,33
432,423	9,32
432,78	9,32
433,137	9,34
433,493	9,36
433,85	9,39
434,207	9,37
434,564	9,37
434,92	9,36
435,277	9,33
435,634	9,3
435,99	9,27
436,347	9,25
436,703	9,26
437,06	9,26
437,416	9,26
437,773	9,25
438,129	9,22
438,485	9,22
438,841	9,23
439,198	9,23
439,554	9,23
439,91	9,26
440,266	9,27
440,622	9,27
440,978	9,27
441,334	9,24
441,69	9,23
442,046	9,22
442,402	9,2
442,758	9,19
443,113	9,18
443,469	9,18
443,825	9,18
444,181	9,18
444,536	9,19
444,892	9,2
445,247	9,23
445,603	9,25
445,958	9,27
446,314	9,27
446,669	9,28
447,025	9,28
447,38	9,3
447,735	9,29
448,09	9,31
448,446	9,31
448,801	9,32
449,156	9,35
449,511	9,39
449,866	9,43
450,221	9,49
450,576	9,52
450,931	9,57
451,286	9,59
451,641	9,64
451,995	9,67
452,35	9,7
452,705	9,7
453,06	9,71
453,414	9,72
453,769	9,72
454,123	9,73
454,478	9,74
454,832	9,72
455,187	9,71
455,541	9,73
455,896	9,71
456,25	9,72
456,604	9,71
456,958	9,7
457,313	9,68
457,667	9,65
458,021	9,66
458,375	9,66
458,729	9,69
459,083	9,7
459,437	9,71
459,791	9,7
460,145	9,71
460,499	9,71
460,852	9,73
461,206	9,74
461,56	9,75
461,914	9,76
462,267	9,77
462,621	9,79
462,974	9,78
463,328	9,82
463,681	9,84
464,035	9,86
464,388	9,87
464,742	9,88
465,095	9,92
465,448	9,95
465,801	9,95
466,155	9,98
466,508	9,98
466,861	9,99
467,214	10,01
467,567	10,03
467,92	10,05
468,273	10,06
468,626	10,07
468,979	10,08
469,332	10,07
469,684	10,09
470,037	10,11
470,39	10,13
470,743	10,14
471,095	10,16
471,448	10,19
471,8	10,22
472,153	10,28
472,505	10,3
472,858	10,3
473,21	10,33
473,562	10,33
473,915	10,33
474,267	10,34
474,619	10,34
474,971	10,35
475,324	10,34
475,676	10,34
476,028	10,32
476,38	10,32
476,732	10,35
477,084	10,38
477,436	10,4
477,787	10,41
478,139	10,43
478,491	10,44
478,843	10,43
479,195	10,42
479,546	10,38
479,898	10,33
480,249	10,28
480,601	10,23
480,952	10,2
481,304	10,18
481,655	10,17
482,007	10,16
482,358	10,16
482,709	10,17
483,061	10,16
483,412	10,17
483,763	10,16
484,114	10,15
484,465	10,13
484,816	10,11
485,167	10,11
485,518	10,11
485,869	10,1
486,22	10,12
486,571	10,14
486,922	10,15
487,272	10,16
487,623	10,19
487,974	10,22
488,324	10,24
488,675	10,26
489,025	10,27
489,376	10,3
489,726	10,32
490,077	10,34
490,427	10,36
490,778	10,38
491,128	10,42
491,478	10,46
491,828	10,51
492,179	10,56
492,529	10,59
492,879	10,61
493,229	10,65
493,579	10,66
493,929	10,65
494,279	10,67
494,629	10,67
494,979	10,69
495,328	10,74
495,678	10,8
496,028	10,86
496,378	10,91
496,727	10,94
497,077	10,97
497,426	10,98
497,776	10,98
498,125	10,99
498,475	11
498,824	11,02
499,174	11,02
499,523	11,01
499,872	11,01
500,221	11,04
500,571	11,07
500,92	11,08
501,269	11,11
501,618	11,12
501,967	11,16
502,316	11,19
502,665	11,2
503,014	11,21
503,363	11,24
503,711	11,25
504,06	11,26
504,409	11,27
504,758	11,28
505,106	11,3
505,455	11,31
505,803	11,31
506,152	11,32
506,5	11,34
506,849	11,36
507,197	11,38
507,546	11,39
507,894	11,4
508,242	11,42
508,59	11,42
508,939	11,44
509,287	11,45
509,635	11,45
509,983	11,49
510,331	11,5
510,679	11,51
511,027	11,53
511,375	11,56
511,723	11,6
512,07	11,61
512,418	11,63
512,766	11,68
513,114	11,72
513,461	11,74
513,809	11,77
514,156	11,79
514,504	11,81
514,851	11,82
515,199	11,82
515,546	11,81
515,893	11,85
516,241	11,87
516,588	11,89
516,935	11,93
517,282	11,94
517,63	11,96
517,977	11,97
518,324	11,99
518,671	12
519,018	12,01
519,365	12,02
519,711	12,03
520,058	12,05
520,405	12,05
520,752	12,06
521,099	12,08
521,445	12,1
521,792	12,11
522,138	12,13
522,485	12,16
522,832	12,19
523,178	12,2
523,524	12,23
523,871	12,24
524,217	12,25
524,563	12,25
524,91	12,24
525,256	12,25
525,602	12,24
525,948	12,25
526,294	12,23
526,64	12,25
526,986	12,26
527,332	12,25
527,678	12,26
528,024	12,26
528,37	12,28
528,716	12,29
529,061	12,29
529,407	12,3
529,753	12,32
530,098	12,33
530,444	12,35
530,789	12,36
531,135	12,38
531,48	12,4
531,826	12,44
532,171	12,48
532,516	12,52
532,862	12,56
533,207	12,57
533,552	12,62
533,897	12,66
534,242	12,68
534,587	12,71
534,932	12,75
535,277	12,79
535,622	12,78
535,967	12,81
536,312	12,85
536,657	12,89
537,001	12,94
537,346	12,99
537,691	13,01
538,035	13,01
538,38	13,03
538,724	13,05
539,069	13,05
539,413	13,07
539,758	13,07
540,102	13,09
540,446	13,12
540,791	13,15
541,135	13,15
541,479	13,18
541,823	13,17
542,167	13,19
542,512	13,22
542,856	13,22
543,2	13,23
543,543	13,24
543,887	13,25
544,231	13,26
544,575	13,29
544,919	13,32
545,262	13,37
545,606	13,41
545,95	13,45
546,293	13,49
546,637	13,53
546,98	13,58
547,324	13,6
547,667	13,67
548,011	13,68
548,354	13,73
548,697	13,75
549,04	13,81
549,384	13,82
549,727	13,84
550,07	13,9
550,413	13,93
550,756	13,98
551,099	14
551,442	14,01
551,785	14,05
552,128	14,07
552,47	14,1
552,813	14,13
553,156	14,13
553,499	14,14
553,841	14,13
554,184	14,13
554,526	14,15
554,869	14,11
555,211	14,12
555,554	14,12
555,896	14,14
556,238	14,13
556,581	14,18
556,923	14,18
557,265	14,2
557,607	14,24
557,949	14,25
558,291	14,28
558,633	14,29
558,975	14,28
559,317	14,29
559,659	14,29
560,001	14,29
560,343	14,28
560,685	14,29
561,026	14,3
561,368	14,31
561,71	14,32
562,051	14,36
562,393	14,41
562,734	14,41
563,076	14,43
563,417	14,47
563,759	14,43
564,1	14,45
564,441	14,43
564,782	14,43
565,124	14,43
565,465	14,42
565,806	14,43
566,147	14,46
566,488	14,5
566,829	14,51
567,17	14,52
567,511	14,55
567,851	14,59
568,192	14,6
568,533	14,61
568,874	14,63
569,214	14,65
569,555	14,63
569,895	14,65
570,236	14,69
570,576	14,7
570,917	14,74
571,257	14,76
571,598	14,81
571,938	14,83
572,278	14,83
572,618	14,88
572,959	14,92
573,299	14,93
573,639	14,94
573,979	14,96
574,319	14,96
574,659	14,99
574,999	14,97
575,339	15
575,678	15,02
576,018	15,03
576,358	15,06
576,698	15,09
577,037	15,09
577,377	15,06
577,716	15,08
578,056	15,1
578,395	15,1
578,735	15,08
579,074	15,1
579,413	15,12
579,753	15,13
580,092	15,12
580,431	15,13
580,77	15,18
581,109	15,19
581,448	15,24
581,787	15,21
582,126	15,26
582,465	15,28
582,804	15,33
583,143	15,38
583,482	15,37
583,82	15,42
584,159	15,45
584,498	15,54
584,836	15,56
585,175	15,59
585,514	15,65
585,852	15,7
586,19	15,71
586,529	15,78
586,867	15,84
587,205	15,9
587,544	15,92
587,882	15,92
588,22	15,97
588,558	16
588,896	16,05
589,234	16,06
589,572	16,08
589,91	16,1
590,248	16,13
590,586	16,17
590,924	16,19
591,262	16,25
591,599	16,25
591,937	16,3
592,275	16,31
592,612	16,3
592,95	16,35
593,287	16,44
593,625	16,5
593,962	16,51
594,299	16,57
594,637	16,63
594,974	16,65
595,311	16,67
595,648	16,71
595,985	16,76
596,322	16,81
596,659	16,85
596,996	16,89
597,333	16,89
597,67	16,92
598,007	16,92
598,344	16,91
598,681	16,95
599,017	16,96
599,354	16,98
599,691	17,05
600,027	17,1
600,364	17,11
600,7	17,12
601,037	17,19
601,373	17,21
601,71	17,24
602,046	17,32
602,382	17,33
602,718	17,33
603,054	17,37
603,391	17,38
603,727	17,42
604,063	17,42
604,399	17,47
604,735	17,51
605,071	17,56
605,406	17,62
605,742	17,66
606,078	17,72
606,414	17,76
606,749	17,79
607,085	17,8
607,421	17,81
607,756	17,87
608,092	17,86
608,427	17,88
608,762	17,9
609,098	17,91
609,433	17,98
609,768	18,01
610,104	18
610,439	18,03
610,774	18,01
611,109	18,06
611,444	18,07
611,779	18,1
612,114	18,16
612,449	18,17
612,784	18,18
613,118	18,16
613,453	18,18
613,788	18,16
614,123	18,15
614,457	18,15
614,792	18,12
615,126	18,15
615,461	18,14
615,795	18,15
616,13	18,19
616,464	18,18
616,798	18,23
617,132	18,24
617,467	18,25
617,801	18,3
618,135	18,32
618,469	18,37
618,803	18,35
619,137	18,33
619,471	18,36
619,805	18,38
620,139	18,41
620,472	18,47
620,806	18,53
621,14	18,58
621,473	18,6
621,807	18,61
622,141	18,63
622,474	18,64
622,808	18,71
623,141	18,74
623,474	18,8
623,808	18,86
624,141	18,91
624,474	18,96
624,807	18,98
625,141	19,03
625,474	19,01
625,807	19,06
626,14	19,1
626,473	19,11
626,806	19,14
627,138	19,17
627,471	19,12
627,804	19,14
628,137	19,18
628,469	19,23
628,802	19,29
629,135	19,34
629,467	19,43
629,8	19,42
630,132	19,39
630,465	19,39
630,797	19,37
631,129	19,42
631,461	19,44
631,794	19,48
632,126	19,47
632,458	19,52
632,79	19,57
633,122	19,6
633,454	19,62
633,786	19,61
634,118	19,63
634,45	19,76
634,781	19,81
635,113	19,8
635,445	19,83
635,777	19,85
636,108	19,83
636,44	19,8
636,771	19,85
637,103	19,91
637,434	19,93
637,765	19,98
638,097	20,01
638,428	20
638,759	19,96
639,09	19,95
639,422	19,92
639,753	19,92
640,084	19,85
640,415	19,91
640,746	19,98
641,077	19,98
641,407	19,9
641,738	19,87
642,069	19,89
642,4	19,91
642,73	19,95
643,061	19,98
643,392	20,04
643,722	20,01
644,053	20,07
644,383	20,07
644,713	20,04
645,044	20
645,374	20,07
645,704	20,13
646,034	20,2
646,365	20,29
646,695	20,33
647,025	20,43
647,355	20,46
647,685	20,49
648,015	20,56
648,344	20,68
648,674	20,72
649,004	20,78
649,334	20,78
649,663	20,83
649,993	20,92
650,323	20,98
650,652	21,02
650,982	21,03
651,311	21,06
651,64	21,14
651,97	21,18
652,299	21,21
652,628	21,23
652,958	21,26
653,287	21,33
653,616	21,31
653,945	21,3
654,274	21,33
654,603	21,36
654,932	21,4
655,261	21,41
655,589	21,53
655,918	21,58
656,247	21,69
656,576	21,77
656,904	21,78
657,233	21,82
657,561	21,84
657,89	21,87
658,218	21,91
658,547	21,94
658,875	21,96
659,203	22
659,532	22,06
659,86	22,13
660,188	22,15
660,516	22,18
660,844	22,16
661,172	22,14
661,5	22,15
661,828	22,13
662,156	22,13
662,484	22,1
662,811	22,1
663,139	22,06
663,467	22
663,794	22,02
664,122	22,02
664,45	22,06
664,777	22,1
665,104	22,2
665,432	22,19
665,759	22,24
666,086	22,29
666,414	22,35
666,741	22,3
667,068	22,31
667,395	22,35
667,722	22,45
668,049	22,56
668,376	22,6
668,703	22,63
669,03	22,73
669,357	22,81
669,683	22,79
670,01	22,84
670,337	22,87
670,663	22,9
670,99	22,88
671,317	22,95
671,643	22,97
671,969	22,92
672,296	23,01
672,622	23,07
672,948	23,02
673,275	23,01
673,601	23,07
673,927	23
674,253	23,02
674,579	23,05
674,905	23,04
675,231	23,08
675,557	23,14
675,883	23,1
676,209	23,14
676,534	23,24
676,86	23,37
677,186	23,37
677,511	23,39
677,837	23,46
678,162	23,49
678,488	23,54
678,813	23,51
679,139	23,53
679,464	23,55
679,789	23,66
680,114	23,66
680,44	23,63
680,765	23,74
681,09	23,76
681,415	23,79
681,74	23,79
682,065	23,78
682,39	23,82
682,714	23,83
683,039	23,79
683,364	23,86
683,689	23,84
684,013	23,94
684,338	23,97
684,662	24
684,987	24
685,311	23,96
685,636	24
685,96	24,03
686,284	24,03
686,608	24
686,933	24,02
687,257	24,1
687,581	24,08
687,905	24,16
688,229	24,22
688,553	24,23
688,877	24,27
689,201	24,26
689,524	24,37
689,848	24,46
690,172	24,39
690,496	24,35
690,819	24,29
691,143	24,29
691,466	24,23
691,79	24,23
692,113	24,27
692,436	24,35
692,76	24,34
693,083	24,4
693,406	24,47
693,729	24,52
694,053	24,58
694,376	24,62
694,699	24,65
695,022	24,69
695,344	24,73
695,667	24,8
695,99	24,88
696,313	24,86
696,636	24,8
696,958	24,84
697,281	24,82
697,604	24,94
697,926	25,02
698,249	25,11
698,571	25,11
698,893	25,13
699,216	25,14
699,538	25,2
699,86	25,19
700,182	25,19
700,504	25,22
700,827	25,14
701,149	25,17
701,471	25,17
701,793	25,15
702,114	25,14
702,436	25,17
702,758	25,14
703,08	25,14
703,401	25,16
703,723	25,23
704,045	25,29
704,366	25,28
704,688	25,24
705,009	25,27
705,331	25,34
705,652	25,35
705,973	25,31
706,294	25,25
706,616	25,32
706,937	25,35
707,258	25,33
707,579	25,47
707,9	25,42
708,221	25,46
708,542	25,49
708,863	25,61
709,183	25,51
709,504	25,57
709,825	25,59
710,145	25,65
710,466	25,69
710,787	25,71
711,107	25,76
711,427	25,76
711,748	25,81
712,068	25,85
712,388	25,91
712,709	26,01
713,029	26,09
713,349	26,11
713,669	26,09
713,989	26,18
714,309	26,19
714,629	26,23
714,949	26,2
715,269	26,25
715,589	26,29
715,908	26,37
716,228	26,41
716,548	26,52
716,867	26,65
717,187	26,69
717,506	26,84
717,826	26,82
718,145	26,98
718,465	27,05
718,784	27,21
719,103	27,4
719,422	27,51
719,741	27,55
720,061	27,64
720,38	27,77
720,699	27,87
721,018	28,02
721,336	28,22
721,655	28,4
721,974	28,5
722,293	28,54
722,612	28,66
722,93	28,7
723,249	28,74
723,567	28,77
723,886	28,79
724,204	28,8
724,523	28,99
724,841	29,03
725,159	29,14
725,477	29,21
725,796	29,21
726,114	29,26
726,432	29,49
726,75	29,63
727,068	29,73
727,386	29,65
727,704	29,68
728,022	29,72
728,339	29,86
728,657	30,06
728,975	30,26
729,292	30,35
729,61	30,32
729,928	30,41
730,245	30,43
730,562	30,48
730,88	30,58
731,197	30,53
731,514	30,59
731,832	30,6
732,149	30,7
732,466	30,84
732,783	30,92
733,1	30,95
733,417	30,96
733,734	31,1
734,051	31,38
734,368	31,49
734,684	31,65
735,001	31,77
735,318	31,77
735,634	31,79
735,951	31,9
736,268	32,16
736,584	32,21
736,9	32,27
737,217	32,44
737,533	32,53
737,849	32,79
738,166	32,89
738,482	33,01
738,798	33,08
739,114	33,09
739,43	33,21
739,746	33,24
740,062	33,33
740,378	33,44
740,693	33,46
741,009	33,4
741,325	33,33
741,641	33,28
741,956	33,39
742,272	33,48
742,587	33,47
742,903	33,54
743,218	33,71
743,533	33,96
743,849	33,97
744,164	33,96
744,479	33,88
744,794	33,89
745,109	33,94
745,424	33,92
745,739	33,97
746,054	34,16
746,369	34,21
746,684	34,25
746,999	34,35
747,313	34,4
747,628	34,54
747,943	34,66
748,257	34,75
748,572	34,73
748,886	34,71
749,201	34,94
749,515	34,99
749,829	34,94
750,144	34,8
750,458	34,88
750,772	35,04
751,086	35,26
751,4	35,31
751,714	35,33
752,028	35,5
752,342	35,68
752,656	35,69
752,97	35,79
753,284	35,89
753,597	35,84
753,911	36,01
754,225	36,18
754,538	36,26
754,852	36,33
755,165	36,32
755,478	36,37
755,792	36,39
756,105	36,56
756,418	36,7
756,731	36,88
757,045	37,02
757,358	37,02
757,671	37,08
757,984	37,2
758,297	37,16
758,609	37,18
758,922	37,1
759,235	37,1
759,548	37,11
759,86	37,13
760,173	36,87
760,486	36,49
760,798	36,39
761,111	36,31
761,423	36,25
761,735	36,23
762,048	36,32
762,36	36,22
762,672	36,1
762,984	36,04
763,296	36,05
763,608	36,09
763,92	36,17
764,232	36,08
764,544	36,21
764,856	36,38
765,168	36,43
765,48	36,53
765,791	36,7
766,103	36,91
766,414	37
766,726	37,3
767,037	37,7
767,349	38,17
767,66	38,57
767,972	38,89
768,283	39,3
768,594	39,49
768,905	39,67
769,216	39,97
769,527	40,29
769,838	40,5
770,149	40,68
770,46	40,95
770,771	41,28
771,082	41,38
771,393	41,54
771,703	41,63
772,014	41,88
772,324	41,91
772,635	41,75
772,945	41,82
773,256	42,1
773,566	42,28
773,877	41,97
774,187	41,97
774,497	42,15
774,807	42,43
775,117	42,76
775,427	43,17
775,737	43,29
776,047	43,37
776,357	43,65
776,667	43,87
776,977	44,11
777,287	44,23
777,596	44,33
777,906	44,53
778,216	44,51
778,525	44,33
778,835	44,51
779,144	44,55
779,453	44,94
779,763	45,05
780,072	45,16
780,381	45,41
780,69	45,61
781	45,43
781,309	45,26
781,618	45,08
781,927	44,96
782,235	45,06
782,544	45,58
782,853	45,69
783,162	45,66
783,471	45,69
783,779	45,51
784,088	45,57
784,396	45,53
784,705	45,58
785,013	45,75
785,322	45,7
785,63	45,68
785,938	45,45
786,246	45,4
786,554	45,33
786,863	45,22
787,171	45,05
787,479	45,13
787,787	45,41
788,094	45,75
788,402	45,91
788,71	45,85
789,018	45,51
789,326	45,26
789,633	45,14
789,941	44,94
790,248	45,22
790,556	45,08
790,863	45,15
791,171	45,42
791,478	45,57
791,785	45,65
792,092	45,93
792,399	45,96
792,707	46,03
793,014	46,18
793,321	46,62
793,628	46,79
793,934	46,78
794,241	46,58
794,548	46,48
794,855	46,57
795,161	46,81
795,468	46,85
795,775	47,21
796,081	47,41
796,388	47,71
796,694	47,67
797	47,89
797,307	48,11
797,613	48,4
797,919	48,68
798,225	48,67
798,531	48,85
798,837	49,04
799,143	49,21
799,449	49,43
799,755	49,21
800,061	49,19
800,367	49,64
800,672	49,92
800,978	50,09
801,284	49,91
801,589	49,75
801,895	49,99
802,2	49,83
802,506	49,92
802,811	49,86
803,116	49,9
803,421	49,77
803,727	49,59
804,032	49,17
804,337	49,03
804,642	48,8
804,947	48,67
805,252	48,67
805,556	48,8
805,861	48,89
806,166	49,25
806,471	49,55
806,775	49,55
807,08	49,65
807,384	49,52
807,689	49,83
807,993	50,1
808,298	50,22
808,602	50,54
808,906	50,35
809,211	50,54
809,515	50,6
809,819	50,94
810,123	50,96
810,427	51,3
810,731	51,02
811,035	51,39
811,338	51,52
811,642	52,02
811,946	51,93
812,25	51,93
812,553	51,71
812,857	51,45
813,16	51,17
813,464	51,17
813,767	51,23
814,07	51,2
814,374	51,02
814,677	50,83
814,98	50,7
815,283	50,71
815,586	50,54
815,889	50,59
816,192	50,65
816,495	50,7
816,798	50,5
817,101	50,61
817,404	50,28
817,706	49,89
818,009	48,95
818,312	48,48
818,614	47,45
818,917	46,04
819,219	44,56
819,521	43,31
819,824	41,85
820,126	40,68
820,428	40
820,73	39,57
821,032	39,23
821,334	38,92
821,636	38,79
821,938	38,65
822,24	38,51
822,542	38,43
822,844	38,38
823,145	38,32
823,447	38,21
823,749	38,24
824,05	38,22
824,352	38,2
824,653	38,07
824,955	38,14
825,256	38,3
825,557	38,47
825,858	38,63
826,16	39,05
826,461	39,47
826,762	39,77
827,063	40,24
827,364	40,65
827,665	41,11
827,965	41,54
828,266	41,88
828,567	42,22
828,868	42,46
829,168	42,75
829,469	42,88
829,769	43,04
830,07	43,16
830,37	43,54
830,67	43,95
830,971	44,38
831,271	44,58
831,571	44,89
831,871	45,02
832,171	45,27
832,471	45,08
832,771	45,53
833,071	45,86
833,371	45,78
833,671	45,64
833,971	45,69
834,27	45,62
834,57	45,71
834,869	45,8
835,169	46,08
835,468	46,27
835,768	46,38
836,067	46,56
836,367	46,73
836,666	46,94
836,965	47,14
837,264	47,71
837,563	48,18
837,862	48,84
838,161	50,06
838,46	50,96
838,759	51,86
839,058	52,1
839,356	52,62
839,655	53,11
839,954	54,11
840,252	54,52
840,551	55,37
840,849	56,05
841,148	56,45
841,446	56,87
841,744	56,82
842,043	57,43
842,341	58,04
842,639	58,3
842,937	58,41
843,235	58,78
843,533	59,16
843,831	59,17
844,129	59,1
844,427	59,4
844,724	59,61
845,022	59,83
845,32	60,36
845,617	60,9
845,915	61,47
846,212	61,34
846,51	62,15
846,807	62,27
847,104	62,91
847,402	63,37
847,699	63,22
847,996	63,32
848,293	63,03
848,59	63,83
848,887	64,47
849,184	65,15
849,481	65,36
849,778	65,54
850,074	67,15
850,371	68,16
850,668	68,05
850,964	69,02
851,261	69,13
851,557	69,49
851,854	69,75
852,15	70,66
852,446	71,67
852,743	71,42
853,039	70,72
853,335	70
853,631	70,45
853,927	70,17
854,223	70,85
854,519	72,08
854,815	71,2
855,111	70,93
855,406	70,56
855,702	70,22
855,998	70,44
856,293	69,45
856,589	69,27
856,884	69,33
857,18	68,44
857,475	69
857,77	69,42
858,066	69,04
858,361	68,21
858,656	67,56
858,951	68,72
859,246	69,84
859,541	70,45
859,836	70,76
860,131	70,92
860,426	70,21
860,72	69,11
861,015	68,81
861,31	68,9
861,604	68,85
861,899	69,55
862,193	69,73
862,487	70,41
862,782	70,53
863,076	70,36
863,37	70,47
863,664	70,12
863,959	70,09
864,253	70,94
864,547	71,37
864,841	72,5
865,135	72,19
865,428	72
865,722	71,58
866,016	71,55
866,31	71,86
866,603	72,34
866,897	73,14
867,19	74,53
867,484	74,7
867,777	74,73
868,07	75,03
868,364	74,69
868,657	74,98
868,95	74,43
869,243	74,71
869,536	75,24
869,829	75,62
870,122	75,37
870,415	74,35
870,708	74,05
871	73,33
871,293	73,41
871,586	73,98
871,878	74,08
872,171	73,57
872,463	73,54
872,756	73,18
873,048	72,66
873,341	71,98
873,633	71,59
873,925	71,22
874,217	70,75
874,509	70,82
874,801	70,38
875,093	71,5
875,385	71,66
875,677	71,25
875,969	71,12
