Data from zc_m1_p3_Reflection_1,txt Node
Date: Wed Nov 25 16:37:18 GMT-03:00 2020
User: Darío
Spectrometer: USB2E3644
Trigger mode: 4
Integration Time (sec): 9,000000E-2
Scans to average: 10
Electric dark correction enabled: true
Nonlinearity correction enabled: false
Boxcar width: 10
XAxis mode: Wavelengths
Number of Pixels in Spectrum: 2048
>>>>>Begin Spectral Data<<<<<
178,315	147,55
178,696	159,63
179,076	203
179,457	237,93
179,838	314,06
180,218	279,55
180,599	153,37
180,979	164
181,36	19,9
181,74	16,18
182,121	38,81
182,501	63,01
182,881	69,56
183,262	61,49
183,642	70,37
184,022	72,83
184,402	87,09
184,783	99,93
185,163	105,29
185,543	109,14
185,923	114,68
186,303	120,46
186,683	122,63
187,063	128,89
187,443	133,75
187,823	131,34
188,203	130,05
188,583	126,54
188,963	125,63
189,343	125,65
189,723	127,06
190,102	129,12
190,482	128,21
190,862	124,95
191,242	125,07
191,621	126,65
192,001	128,17
192,38	124,21
192,76	121,31
193,14	119,4
193,519	116,19
193,898	113,66
194,278	115,34
194,657	116,83
195,037	114,94
195,416	113,19
195,795	113,25
196,175	112,22
196,554	113,1
196,933	112,93
197,312	112,74
197,692	113,16
198,071	114,22
198,45	116,34
198,829	118,1
199,208	120,46
199,587	120,58
199,966	120,49
200,345	120,28
200,724	120,7
201,103	121,9
201,482	123,89
201,86	124,37
202,239	122,22
202,618	120,21
202,997	121,18
203,375	121,79
203,754	121,85
204,133	121,71
204,511	119
204,89	118,87
205,269	120,63
205,647	120,28
206,026	119,59
206,404	119,56
206,782	118,81
207,161	117,28
207,539	115,57
207,918	114,54
208,296	113,52
208,674	114,73
209,052	116,25
209,431	116,15
209,809	115,9
210,187	115,61
210,565	117,59
210,943	117,68
211,321	116,12
211,699	116,7
212,077	119,27
212,455	123,94
212,833	126,53
213,211	127,37
213,589	129,97
213,967	128,76
214,345	128,81
214,722	132,62
215,1	133,77
215,478	134,26
215,855	136,02
216,233	141,39
216,611	141,18
216,988	138,15
217,366	134,91
217,743	134,18
218,121	133,21
218,498	131,55
218,876	128,29
219,253	128,43
219,631	127,1
220,008	124,65
220,385	123,86
220,762	122,41
221,14	122,06
221,517	122,41
221,894	124,38
222,271	127,06
222,648	125,89
223,025	129,52
223,402	133,32
223,78	132,53
224,157	128,1
224,533	127,98
224,91	126,39
225,287	130,11
225,664	137,26
226,041	144,2
226,418	148,42
226,795	154,03
227,171	156,57
227,548	162,1
227,925	172,57
228,301	174,11
228,678	177,52
229,055	174,96
229,431	173,43
229,808	175,2
230,184	177,15
230,561	181,53
230,937	183,87
231,313	189,56
231,69	200,56
232,066	206,38
232,442	211,38
232,819	227,06
233,195	229,49
233,571	227,52
233,947	232,85
234,323	233,68
234,699	244,95
235,075	250,98
235,451	255,33
235,827	256,6
236,203	266,15
236,579	275,45
236,955	304,74
237,331	337,74
237,707	370,14
238,083	404,71
238,459	491,26
238,834	802,13
239,21	2224,77
239,586	-2747,65
239,961	-914,48
240,337	-637,1
240,713	-472,35
241,088	-364,53
241,464	-307,22
241,839	-267,13
242,215	-224,77
242,59	-188,1
242,965	-139,15
243,341	-103,18
243,716	-81,69
244,091	-69,37
244,467	-59,9
244,842	-54,42
245,217	-50,76
245,592	-48,73
245,967	-50,12
246,343	-50,15
246,718	-51,96
247,093	-54,22
247,468	-55,35
247,843	-55,32
248,218	-54,31
248,593	-53,54
248,967	-52,12
249,342	-50,53
249,717	-49,32
250,092	-48,58
250,467	-48,93
250,841	-51,73
251,216	-56,87
251,591	-61,88
251,965	-68,08
252,34	-77,12
252,714	-81,26
253,089	-83,72
253,463	-84,56
253,838	-79,46
254,212	-77,68
254,587	-75,21
254,961	-72,57
255,335	-68,04
255,71	-57,83
256,084	-46,5
256,458	-38,47
256,832	-32,51
257,206	-29,2
257,581	-26,94
257,955	-26,29
258,329	-25,22
258,703	-24,04
259,077	-22,91
259,451	-22,45
259,825	-22,18
260,199	-21,6
260,572	-21,67
260,946	-22,26
261,32	-22,59
261,694	-22,68
262,068	-22,8
262,441	-22,05
262,815	-20,61
263,189	-19,88
263,562	-19,76
263,936	-21,16
264,309	-22,47
264,683	-24,11
265,056	-24,84
265,43	-24,52
265,803	-23,29
266,176	-22,47
266,55	-22,03
266,923	-21,68
267,296	-21,45
267,67	-20,96
268,043	-20,38
268,416	-19,45
268,789	-17,56
269,162	-16,24
269,535	-14,93
269,908	-13,63
270,281	-13,19
270,654	-13,27
271,027	-13,28
271,4	-13,88
271,773	-13,83
272,146	-14,12
272,519	-14,46
272,891	-14,99
273,264	-15,91
273,637	-16,28
274,01	-16,46
274,382	-16,63
274,755	-16,43
275,127	-16,27
275,5	-16,06
275,872	-15,54
276,245	-15,5
276,617	-16,05
276,99	-16,89
277,362	-17,79
277,734	-18,06
278,107	-17,77
278,479	-16,72
278,851	-15,95
279,223	-15,33
279,596	-15,07
279,968	-14,58
280,34	-14,09
280,712	-13,7
281,084	-13,19
281,456	-12,88
281,828	-12,49
282,2	-11,79
282,572	-11,21
282,944	-10,62
283,315	-10,1
283,687	-9,8
284,059	-9,36
284,431	-8,9
284,802	-8,36
285,174	-7,81
285,546	-7,63
285,917	-7,91
286,289	-8,27
286,66	-8,21
287,032	-7,94
287,403	-7,56
287,775	-7,26
288,146	-7,13
288,518	-6,99
288,889	-6,9
289,26	-6,65
289,632	-6,71
290,003	-6,94
290,374	-7,61
290,745	-8,39
291,116	-8,76
291,487	-9,03
291,858	-9,25
292,229	-9,36
292,6	-9,16
292,971	-9,09
293,342	-8,98
293,713	-8,24
294,084	-7,84
294,455	-7,72
294,826	-7,71
295,196	-7,81
295,567	-7,74
295,938	-7,5
296,308	-7,53
296,679	-7,42
297,05	-7,35
297,42	-7,18
297,791	-6,91
298,161	-6,37
298,532	-5,9
298,902	-5,65
299,272	-5,49
299,643	-5,35
300,013	-5,13
300,383	-5,07
300,754	-5,07
301,124	-5,28
301,494	-5,58
301,864	-5,72
302,234	-5,89
302,604	-5,79
302,974	-5,73
303,344	-5,92
303,714	-6,06
304,084	-5,9
304,454	-5,61
304,824	-5,55
305,194	-5,64
305,563	-5,71
305,933	-5,79
306,303	-5,58
306,673	-5,38
307,042	-5,33
307,412	-5,26
307,781	-4,88
308,151	-4,69
308,521	-4,41
308,89	-4,04
309,259	-3,76
309,629	-3,64
309,998	-3,5
310,368	-3,35
310,737	-3,38
311,106	-3,43
311,475	-3,26
311,845	-3,11
312,214	-3,07
312,583	-3,12
312,952	-3,01
313,321	-2,95
313,69	-2,86
314,059	-2,84
314,428	-2,7
314,797	-2,43
315,166	-2,22
315,535	-2,44
315,904	-2,28
316,272	-2,26
316,641	-2,15
317,01	-2,2
317,379	-2,1
317,747	-2,12
318,116	-2,28
318,484	-2,13
318,853	-1,99
319,221	-2,13
319,59	-2,11
319,958	-2,11
320,327	-1,92
320,695	-1,78
321,063	-1,62
321,432	-1,49
321,8	-1,46
322,168	-1,63
322,536	-1,74
322,905	-2,03
323,273	-2,16
323,641	-2,41
324,009	-2,49
324,377	-2,61
324,745	-2,55
325,113	-2,4
325,481	-2,21
325,849	-2,21
326,216	-2,26
326,584	-2,23
326,952	-2,22
327,32	-2,3
327,687	-2,36
328,055	-2,38
328,423	-2,19
328,79	-2,02
329,158	-2,11
329,525	-2,13
329,893	-2,02
330,26	-1,84
330,628	-1,57
330,995	-1,31
331,362	-0,99
331,73	-0,84
332,097	-0,63
332,464	-0,59
332,831	-0,58
333,199	-0,45
333,566	-0,21
333,933	0,02
334,3	0,18
334,667	0,4
335,034	0,45
335,401	0,59
335,768	0,69
336,135	0,66
336,502	0,6
336,868	0,68
337,235	0,75
337,602	0,82
337,969	0,72
338,335	0,71
338,702	0,65
339,069	0,55
339,435	0,57
339,802	0,56
340,168	0,6
340,535	0,6
340,901	0,6
341,267	0,49
341,634	0,5
342	0,49
342,366	0,54
342,733	0,56
343,099	0,58
343,465	0,59
343,831	0,63
344,197	0,77
344,563	0,86
344,929	0,88
345,295	0,87
345,661	1,01
346,027	1,09
346,393	1,16
346,759	1,25
347,125	1,21
347,491	1,26
347,856	1,35
348,222	1,48
348,588	1,46
348,953	1,54
349,319	1,54
349,684	1,57
350,05	1,47
350,415	1,56
350,781	1,68
351,146	1,85
351,512	1,88
351,877	1,85
352,242	1,77
352,608	1,84
352,973	1,87
353,338	1,85
353,703	1,81
354,068	1,79
354,433	1,72
354,798	1,79
355,164	1,77
355,528	1,75
355,893	1,71
356,258	1,79
356,623	1,88
356,988	2,01
357,353	2
357,718	2,08
358,082	2,11
358,447	2,06
358,812	1,98
359,176	2,08
359,541	2,18
359,905	2,32
360,27	2,32
360,634	2,38
360,999	2,44
361,363	2,48
361,728	2,59
362,092	2,73
362,456	2,75
362,821	2,81
363,185	2,87
363,549	2,89
363,913	2,9
364,277	2,92
364,641	2,95
365,005	3,05
365,369	3,05
365,733	3,07
366,097	3,14
366,461	3,14
366,825	3,17
367,189	3,2
367,553	3,28
367,916	3,42
368,28	3,47
368,644	3,56
369,007	3,72
369,371	3,76
369,734	3,8
370,098	3,89
370,461	3,96
370,825	3,98
371,188	3,99
371,552	4,13
371,915	4,23
372,278	4,31
372,642	4,41
373,005	4,47
373,368	4,51
373,731	4,56
374,094	4,67
374,457	4,71
374,82	4,73
375,183	4,75
375,546	4,78
375,909	4,83
376,272	4,85
376,635	4,9
376,998	4,95
377,361	5,03
377,723	5,05
378,086	5,07
378,449	5,15
378,811	5,26
379,174	5,26
379,537	5,26
379,899	5,26
380,262	5,26
380,624	5,39
380,987	5,46
381,349	5,52
381,711	5,56
382,074	5,58
382,436	5,64
382,798	5,75
383,16	5,8
383,522	5,81
383,884	5,81
384,247	5,79
384,609	5,81
384,971	5,81
385,333	5,89
385,695	5,96
386,056	5,96
386,418	5,96
386,78	6
387,142	6,01
387,504	6
387,865	5,98
388,227	5,96
388,589	6
388,95	6,04
389,312	6,03
389,673	6,03
390,035	6,01
390,396	5,94
390,758	5,95
391,119	5,99
391,48	6
391,842	6
392,203	5,97
392,564	5,96
392,925	5,95
393,286	5,9
393,648	5,91
394,009	5,9
394,37	5,93
394,731	5,95
395,092	5,99
395,452	6,01
395,813	6,01
396,174	5,99
396,535	5,97
396,896	6,02
397,257	6,02
397,617	6,06
397,978	6,1
398,338	6,09
398,699	6,11
399,06	6,14
399,42	6,17
399,781	6,18
400,141	6,18
400,501	6,16
400,862	6,21
401,222	6,22
401,582	6,23
401,943	6,18
402,303	6,17
402,663	6,18
403,023	6,17
403,383	6,18
403,743	6,19
404,103	6,21
404,463	6,21
404,823	6,22
405,183	6,25
405,543	6,27
405,903	6,29
406,262	6,26
406,622	6,23
406,982	6,21
407,342	6,26
407,701	6,29
408,061	6,34
408,42	6,34
408,78	6,33
409,139	6,34
409,499	6,34
409,858	6,38
410,217	6,37
410,577	6,4
410,936	6,41
411,295	6,38
411,655	6,34
412,014	6,32
412,373	6,3
412,732	6,23
413,091	6,13
413,45	6,07
413,809	6,06
414,168	6,02
414,527	5,94
414,886	5,88
415,245	5,82
415,603	5,75
415,962	5,7
416,321	5,65
416,679	5,6
417,038	5,55
417,397	5,45
417,755	5,38
418,114	5,34
418,472	5,3
418,831	5,28
419,189	5,28
419,547	5,25
419,906	5,23
420,264	5,2
420,622	5,19
420,981	5,16
421,339	5,14
421,697	5,13
422,055	5,16
422,413	5,17
422,771	5,16
423,129	5,18
423,487	5,21
423,845	5,24
424,203	5,26
424,56	5,29
424,918	5,33
425,276	5,38
425,634	5,43
425,991	5,46
426,349	5,48
426,707	5,51
427,064	5,55
427,422	5,58
427,779	5,66
428,137	5,72
428,494	5,78
428,851	5,82
429,209	5,84
429,566	5,82
429,923	5,8
430,28	5,8
430,637	5,79
430,995	5,76
431,352	5,76
431,709	5,75
432,066	5,77
432,423	5,76
432,78	5,75
433,137	5,75
433,493	5,75
433,85	5,77
434,207	5,72
434,564	5,7
434,92	5,7
435,277	5,67
435,634	5,65
435,99	5,63
436,347	5,62
436,703	5,62
437,06	5,63
437,416	5,62
437,773	5,61
438,129	5,61
438,485	5,61
438,841	5,59
439,198	5,58
439,554	5,56
439,91	5,59
440,266	5,59
440,622	5,59
440,978	5,57
441,334	5,54
441,69	5,53
442,046	5,52
442,402	5,49
442,758	5,47
443,113	5,45
443,469	5,43
443,825	5,44
444,181	5,43
444,536	5,42
444,892	5,42
445,247	5,42
445,603	5,42
445,958	5,44
446,314	5,44
446,669	5,46
447,025	5,46
447,38	5,45
447,735	5,44
448,09	5,44
448,446	5,45
448,801	5,45
449,156	5,48
449,511	5,49
449,866	5,54
450,221	5,59
450,576	5,62
450,931	5,68
451,286	5,71
451,641	5,75
451,995	5,78
452,35	5,81
452,705	5,83
453,06	5,83
453,414	5,83
453,769	5,84
454,123	5,85
454,478	5,86
454,832	5,86
455,187	5,84
455,541	5,83
455,896	5,8
456,25	5,77
456,604	5,74
456,958	5,72
457,313	5,7
457,667	5,67
458,021	5,66
458,375	5,64
458,729	5,64
459,083	5,64
459,437	5,63
459,791	5,63
460,145	5,64
460,499	5,65
460,852	5,65
461,206	5,65
461,56	5,64
461,914	5,62
462,267	5,63
462,621	5,64
462,974	5,66
463,328	5,69
463,681	5,72
464,035	5,74
464,388	5,76
464,742	5,77
465,095	5,78
465,448	5,81
465,801	5,8
466,155	5,8
466,508	5,81
466,861	5,83
467,214	5,84
467,567	5,84
467,92	5,83
468,273	5,81
468,626	5,8
468,979	5,81
469,332	5,79
469,684	5,78
470,037	5,79
470,39	5,78
470,743	5,79
471,095	5,81
471,448	5,82
471,8	5,82
472,153	5,84
472,505	5,85
472,858	5,85
473,21	5,86
473,562	5,86
473,915	5,85
474,267	5,85
474,619	5,84
474,971	5,83
475,324	5,82
475,676	5,84
476,028	5,84
476,38	5,84
476,732	5,87
477,084	5,88
477,436	5,88
477,787	5,87
478,139	5,85
478,491	5,83
478,843	5,82
479,195	5,8
479,546	5,77
479,898	5,72
480,249	5,64
480,601	5,57
480,952	5,53
481,304	5,5
481,655	5,48
482,007	5,46
482,358	5,46
482,709	5,46
483,061	5,45
483,412	5,44
483,763	5,42
484,114	5,4
484,465	5,38
484,816	5,35
485,167	5,35
485,518	5,35
485,869	5,35
486,22	5,36
486,571	5,36
486,922	5,37
487,272	5,37
487,623	5,38
487,974	5,4
488,324	5,41
488,675	5,42
489,025	5,42
489,376	5,43
489,726	5,44
490,077	5,44
490,427	5,45
490,778	5,46
491,128	5,48
491,478	5,52
491,828	5,56
492,179	5,59
492,529	5,61
492,879	5,63
493,229	5,63
493,579	5,63
493,929	5,63
494,279	5,64
494,629	5,65
494,979	5,66
495,328	5,68
495,678	5,72
496,028	5,76
496,378	5,8
496,727	5,83
497,077	5,85
497,426	5,87
497,776	5,87
498,125	5,88
498,475	5,88
498,824	5,87
499,174	5,86
499,523	5,87
499,872	5,86
500,221	5,88
500,571	5,89
500,92	5,89
501,269	5,92
501,618	5,91
501,967	5,92
502,316	5,94
502,665	5,95
503,014	5,95
503,363	5,95
503,711	5,95
504,06	5,93
504,409	5,91
504,758	5,9
505,106	5,9
505,455	5,9
505,803	5,9
506,152	5,88
506,5	5,87
506,849	5,87
507,197	5,87
507,546	5,86
507,894	5,89
508,242	5,87
508,59	5,86
508,939	5,87
509,287	5,86
509,635	5,85
509,983	5,86
510,331	5,86
510,679	5,87
511,027	5,88
511,375	5,91
511,723	5,92
512,07	5,93
512,418	5,93
512,766	5,94
513,114	5,96
513,461	5,99
513,809	5,99
514,156	6
514,504	6
514,851	5,97
515,199	5,93
515,546	5,94
515,893	5,93
516,241	5,93
516,588	5,94
516,935	5,96
517,282	5,96
517,63	5,96
517,977	5,95
518,324	5,94
518,671	5,93
519,018	5,93
519,365	5,93
519,711	5,94
520,058	5,94
520,405	5,92
520,752	5,92
521,099	5,93
521,445	5,94
521,792	5,94
522,138	5,97
522,485	5,97
522,832	5,97
523,178	5,97
523,524	5,97
523,871	5,97
524,217	5,94
524,563	5,91
524,91	5,88
525,256	5,85
525,602	5,81
525,948	5,79
526,294	5,77
526,64	5,75
526,986	5,74
527,332	5,72
527,678	5,72
528,024	5,7
528,37	5,71
528,716	5,69
529,061	5,69
529,407	5,68
529,753	5,68
530,098	5,68
530,444	5,68
530,789	5,68
531,135	5,68
531,48	5,7
531,826	5,72
532,171	5,74
532,516	5,78
532,862	5,81
533,207	5,82
533,552	5,85
533,897	5,86
534,242	5,88
534,587	5,9
534,932	5,91
535,277	5,93
535,622	5,92
535,967	5,96
536,312	5,99
536,657	6,01
537,001	6,02
537,346	6,03
537,691	6,01
538,035	5,99
538,38	5,97
538,724	5,94
539,069	5,93
539,413	5,92
539,758	5,89
540,102	5,89
540,446	5,89
540,791	5,89
541,135	5,89
541,479	5,88
541,823	5,87
542,167	5,85
542,512	5,86
542,856	5,85
543,2	5,82
543,543	5,79
543,887	5,79
544,231	5,79
544,575	5,8
544,919	5,83
545,262	5,85
545,606	5,87
545,95	5,89
546,293	5,91
546,637	5,91
546,98	5,94
547,324	5,93
547,667	5,95
548,011	5,94
548,354	5,94
548,697	5,94
549,04	5,96
549,384	5,95
549,727	5,92
550,07	5,94
550,413	5,96
550,756	5,98
551,099	5,97
551,442	5,95
551,785	5,96
552,128	5,93
552,47	5,93
552,813	5,93
553,156	5,9
553,499	5,87
553,841	5,85
554,184	5,82
554,526	5,82
554,869	5,8
555,211	5,8
555,554	5,78
555,896	5,79
556,238	5,75
556,581	5,75
556,923	5,73
557,265	5,71
557,607	5,7
557,949	5,67
558,291	5,66
558,633	5,65
558,975	5,61
559,317	5,6
559,659	5,57
560,001	5,55
560,343	5,53
560,685	5,53
561,026	5,51
561,368	5,48
561,71	5,46
562,051	5,43
562,393	5,42
562,734	5,41
563,076	5,39
563,417	5,39
563,759	5,38
564,1	5,39
564,441	5,39
564,782	5,38
565,124	5,37
565,465	5,35
565,806	5,32
566,147	5,31
566,488	5,29
566,829	5,27
567,17	5,27
567,511	5,27
567,851	5,27
568,192	5,26
568,533	5,26
568,874	5,25
569,214	5,26
569,555	5,25
569,895	5,24
570,236	5,22
570,576	5,2
570,917	5,18
571,257	5,16
571,598	5,14
571,938	5,1
572,278	5,08
572,618	5,08
572,959	5,08
573,299	5,06
573,639	5,07
573,979	5,05
574,319	5,03
574,659	5,02
574,999	5
575,339	4,98
575,678	4,94
576,018	4,93
576,358	4,92
576,698	4,89
577,037	4,87
577,377	4,84
577,716	4,82
578,056	4,8
578,395	4,77
578,735	4,73
579,074	4,74
579,413	4,72
579,753	4,7
580,092	4,67
580,431	4,64
580,77	4,62
581,109	4,61
581,448	4,6
581,787	4,57
582,126	4,56
582,465	4,57
582,804	4,58
583,143	4,59
583,482	4,57
583,82	4,57
584,159	4,58
584,498	4,58
584,836	4,6
585,175	4,6
585,514	4,59
585,852	4,61
586,19	4,62
586,529	4,64
586,867	4,66
587,205	4,68
587,544	4,7
587,882	4,69
588,22	4,69
588,558	4,72
588,896	4,73
589,234	4,74
589,572	4,75
589,91	4,74
590,248	4,73
590,586	4,72
590,924	4,72
591,262	4,74
591,599	4,77
591,937	4,78
592,275	4,78
592,612	4,77
592,95	4,78
593,287	4,79
593,625	4,81
593,962	4,82
594,299	4,85
594,637	4,89
594,974	4,91
595,311	4,95
595,648	4,93
595,985	4,94
596,322	4,93
596,659	4,92
596,996	4,92
597,333	4,91
597,67	4,92
598,007	4,91
598,344	4,9
598,681	4,88
599,017	4,87
599,354	4,86
599,691	4,89
600,027	4,9
600,364	4,88
600,7	4,88
601,037	4,89
601,373	4,91
601,71	4,91
602,046	4,93
602,382	4,93
602,718	4,93
603,054	4,93
603,391	4,94
603,727	4,94
604,063	4,96
604,399	4,96
604,735	4,95
605,071	4,97
605,406	5
605,742	5,02
606,078	5,03
606,414	5,05
606,749	5,07
607,085	5,07
607,421	5,08
607,756	5,07
608,092	5,04
608,427	5,01
608,762	4,99
609,098	4,98
609,433	4,96
609,768	4,95
610,104	4,93
610,439	4,93
610,774	4,94
611,109	4,93
611,444	4,93
611,779	4,96
612,114	4,95
612,449	4,92
612,784	4,89
613,118	4,86
613,453	4,82
613,788	4,79
614,123	4,76
614,457	4,74
614,792	4,72
615,126	4,69
615,461	4,63
615,795	4,6
616,13	4,57
616,464	4,53
616,798	4,54
617,132	4,54
617,467	4,57
617,801	4,54
618,135	4,51
618,469	4,51
618,803	4,49
619,137	4,47
619,471	4,49
619,805	4,51
620,139	4,51
620,472	4,52
620,806	4,54
621,14	4,54
621,473	4,53
621,807	4,51
622,141	4,53
622,474	4,56
622,808	4,59
623,141	4,61
623,474	4,66
623,808	4,67
624,141	4,68
624,474	4,67
624,807	4,68
625,141	4,7
625,474	4,72
625,807	4,74
626,14	4,73
626,473	4,73
626,806	4,73
627,138	4,75
627,471	4,75
627,804	4,75
628,137	4,76
628,469	4,76
628,802	4,77
629,135	4,81
629,467	4,86
629,8	4,86
630,132	4,85
630,465	4,84
630,797	4,84
631,129	4,83
631,461	4,82
631,794	4,84
632,126	4,84
632,458	4,82
632,79	4,79
633,122	4,8
633,454	4,81
633,786	4,78
634,118	4,79
634,45	4,85
634,781	4,88
635,113	4,88
635,445	4,89
635,777	4,87
636,108	4,85
636,44	4,81
636,771	4,81
637,103	4,79
637,434	4,78
637,765	4,79
638,097	4,8
638,428	4,74
638,759	4,68
639,09	4,69
639,422	4,68
639,753	4,67
640,084	4,66
640,415	4,65
640,746	4,71
641,077	4,67
641,407	4,61
641,738	4,57
642,069	4,54
642,4	4,54
642,73	4,57
643,061	4,57
643,392	4,55
643,722	4,55
644,053	4,57
644,383	4,57
644,713	4,56
645,044	4,49
645,374	4,55
645,704	4,59
646,034	4,61
646,365	4,64
646,695	4,68
647,025	4,7
647,355	4,74
647,685	4,74
648,015	4,78
648,344	4,77
648,674	4,76
649,004	4,79
649,334	4,81
649,663	4,82
649,993	4,83
650,323	4,85
650,652	4,84
650,982	4,82
651,311	4,78
651,64	4,75
651,97	4,8
652,299	4,8
652,628	4,81
652,958	4,8
653,287	4,81
653,616	4,78
653,945	4,76
654,274	4,74
654,603	4,71
654,932	4,71
655,261	4,75
655,589	4,8
655,918	4,8
656,247	4,87
656,576	4,92
656,904	4,95
657,233	5,01
657,561	5,03
657,89	5,05
658,218	5,07
658,547	5,12
658,875	5,14
659,203	5,15
659,532	5,13
659,86	5,15
660,188	5,14
660,516	5,14
660,844	5,16
661,172	5,17
661,5	5,17
661,828	5,17
662,156	5,16
662,484	5,15
662,811	5,12
663,139	5,05
663,467	4,96
663,794	4,94
664,122	4,89
664,45	4,9
664,777	4,9
665,104	4,93
665,432	4,91
665,759	4,91
666,086	4,96
666,414	4,99
666,741	4,94
667,068	4,94
667,395	4,97
667,722	4,96
668,049	4,97
668,376	4,98
668,703	4,98
669,03	4,98
669,357	4,99
669,683	5,01
670,01	5,04
670,337	5,03
670,663	5
670,99	4,98
671,317	4,95
671,643	4,96
671,969	4,94
672,296	4,94
672,622	4,94
672,948	4,89
673,275	4,87
673,601	4,9
673,927	4,89
674,253	4,86
674,579	4,85
674,905	4,85
675,231	4,88
675,557	4,89
675,883	4,89
676,209	4,91
676,534	4,92
676,86	4,99
677,186	5,06
677,511	5,08
677,837	5,13
678,162	5,21
678,488	5,22
678,813	5,26
679,139	5,29
679,464	5,32
679,789	5,37
680,114	5,39
680,44	5,39
680,765	5,43
681,09	5,42
681,415	5,42
681,74	5,4
682,065	5,4
682,39	5,39
682,714	5,39
683,039	5,4
683,364	5,44
683,689	5,42
684,013	5,4
684,338	5,4
684,662	5,35
684,987	5,25
685,311	5,24
685,636	5,21
685,96	5,21
686,284	5,21
686,608	5,21
686,933	5,22
687,257	5,25
687,581	5,21
687,905	5,29
688,229	5,31
688,553	5,31
688,877	5,3
689,201	5,32
689,524	5,39
689,848	5,39
690,172	5,35
690,496	5,31
690,819	5,32
691,143	5,37
691,466	5,44
691,79	5,45
692,113	5,47
692,436	5,49
692,76	5,47
693,083	5,44
693,406	5,44
693,729	5,38
694,053	5,32
694,376	5,34
694,699	5,36
695,022	5,43
695,344	5,44
695,667	5,49
695,99	5,54
696,313	5,56
696,636	5,57
696,958	5,59
697,281	5,6
697,604	5,63
697,926	5,6
698,249	5,53
698,571	5,53
698,893	5,49
699,216	5,45
699,538	5,46
699,86	5,47
700,182	5,47
700,504	5,52
700,827	5,51
701,149	5,48
701,471	5,44
701,793	5,39
702,114	5,41
702,436	5,3
702,758	5,21
703,08	5,1
703,401	5,04
703,723	5
704,045	5
704,366	4,93
704,688	4,91
705,009	4,98
705,331	5
705,652	5,03
705,973	5,06
706,294	5,08
706,616	5,13
706,937	5,09
707,258	5,01
707,579	5,05
707,9	5,1
708,221	5,13
708,542	5,14
708,863	5,11
709,183	5,18
709,504	5,22
709,825	5,25
710,145	5,26
710,466	5,33
710,787	5,38
711,107	5,42
711,427	5,48
711,748	5,49
712,068	5,49
712,388	5,52
712,709	5,54
713,029	5,54
713,349	5,53
713,669	5,61
713,989	5,73
714,309	5,83
714,629	5,85
714,949	5,88
715,269	5,82
715,589	5,86
715,908	5,89
716,228	5,9
716,548	5,89
716,867	5,86
717,187	5,83
717,506	5,88
717,826	5,93
718,145	5,95
718,465	5,99
718,784	6,16
719,103	6,3
719,422	6,37
719,741	6,44
720,061	6,51
720,38	6,56
720,699	6,64
721,018	6,68
721,336	6,79
721,655	6,9
721,974	7,14
722,293	7,32
722,612	7,38
722,93	7,5
723,249	7,67
723,567	7,9
723,886	8,07
724,204	8,11
724,523	8,28
724,841	8,46
725,159	8,61
725,477	8,67
725,796	8,73
726,114	8,89
726,432	9,07
726,75	9,2
727,068	9,29
727,386	9,34
727,704	9,4
728,022	9,51
728,339	9,55
728,657	9,61
728,975	9,73
729,292	9,9
729,61	9,94
729,928	10,07
730,245	10,11
730,562	10,09
730,88	10,19
731,197	10,22
731,514	10,28
731,832	10,27
732,149	10,35
732,466	10,42
732,783	10,5
733,1	10,57
733,417	10,7
733,734	10,93
734,051	11,09
734,368	11,26
734,684	11,33
735,001	11,47
735,318	11,64
735,634	11,64
735,951	11,72
736,268	11,86
736,584	11,95
736,9	12,04
737,217	12,25
737,533	12,37
737,849	12,56
738,166	12,71
738,482	12,91
738,798	13,06
739,114	13,21
739,43	13,24
739,746	13,26
740,062	13,29
740,378	13,27
740,693	13,26
741,009	13,18
741,325	13,23
741,641	13,29
741,956	13,32
742,272	13,46
742,587	13,51
742,903	13,66
743,218	13,8
743,533	13,93
743,849	13,97
744,164	14,07
744,479	14,03
744,794	14,04
745,109	14,17
745,424	14,22
745,739	14,25
746,054	14,43
746,369	14,5
746,684	14,49
746,999	14,51
747,313	14,67
747,628	14,8
747,943	14,83
748,257	14,92
748,572	14,95
748,886	15
749,201	15,07
749,515	15,14
749,829	15,2
750,144	15,2
750,458	15,29
750,772	15,16
751,086	15,16
751,4	15,17
751,714	15,1
752,028	15,24
752,342	15,37
752,656	15,38
752,97	15,53
753,284	15,65
753,597	15,71
753,911	15,8
754,225	15,95
754,538	16,08
754,852	16,05
755,165	15,95
755,478	15,99
755,792	16,15
756,105	16,3
756,418	16,35
756,731	16,36
757,045	16,4
757,358	16,49
757,671	16,59
757,984	16,67
758,297	16,71
758,609	16,72
758,922	16,66
759,235	16,61
759,548	16,47
759,86	16,33
760,173	16,07
760,486	15,75
760,798	15,48
761,111	15,32
761,423	15,31
761,735	15,35
762,048	15,36
762,36	15,32
762,672	15,2
762,984	15,15
763,296	15,22
763,608	15,2
763,92	15,31
764,232	15,37
764,544	15,47
764,856	15,67
765,168	15,73
765,48	15,87
765,791	16,02
766,103	16,21
766,414	16,44
766,726	16,76
767,037	17,26
767,349	17,72
767,66	18,13
767,972	18,46
768,283	18,93
768,594	19,25
768,905	19,36
769,216	19,59
769,527	19,79
769,838	20,03
770,149	20,42
770,46	20,7
770,771	21,1
771,082	21,38
771,393	21,37
771,703	21,59
772,014	21,8
772,324	21,91
772,635	21,96
772,945	22,09
773,256	22,26
773,566	22,2
773,877	22,18
774,187	22,33
774,497	22,58
774,807	22,77
775,117	22,88
775,427	23,13
775,737	23,21
776,047	23,31
776,357	23,59
776,667	23,68
776,977	23,72
777,287	23,57
777,596	23,58
777,906	23,81
778,216	23,84
778,525	23,8
778,835	23,9
779,144	24,33
779,453	24,54
779,763	24,67
780,072	24,79
780,381	25,02
780,69	25,18
781	25,2
781,309	25,12
781,618	25,19
781,927	25,34
782,235	25,6
782,544	25,86
782,853	25,68
783,162	25,9
783,471	25,99
783,779	26,12
784,088	26,29
784,396	26,25
784,705	26,17
785,013	26,07
785,322	26,11
785,63	25,65
785,938	25,22
786,246	24,95
786,554	24,84
786,863	24,55
787,171	24,32
787,479	24,23
787,787	24,31
788,094	24,46
788,402	24,37
788,71	24,3
789,018	24,18
789,326	24,44
789,633	24,49
789,941	24,54
790,248	24,55
790,556	24,4
790,863	24,57
791,171	24,91
791,478	25,31
791,785	25,48
792,092	25,74
792,399	26,07
792,707	26,46
793,014	26,78
793,321	27,22
793,628	27,5
793,934	27,77
794,241	27,76
794,548	27,72
794,855	27,81
795,161	28
795,468	28,14
795,775	27,93
796,081	27,83
796,388	27,97
796,694	27,8
797	28,03
797,307	28,15
797,613	28,05
797,919	27,98
798,225	28,07
798,531	28,1
798,837	28,18
799,143	28,32
799,449	28,28
799,755	28,15
800,061	28,18
800,367	28,24
800,672	28,54
800,978	28,76
801,284	28,83
801,589	28,88
801,895	29,05
802,2	29,39
802,506	29,55
802,811	29,64
803,116	30,13
803,421	29,93
803,727	29,64
804,032	29,59
804,337	29,75
804,642	29,57
804,947	29,74
805,252	30,09
805,556	30,3
805,861	30,49
806,166	30,83
806,471	30,97
806,775	30,78
807,08	30,72
807,384	30,53
807,689	30,75
807,993	30,56
808,298	30,45
808,602	30,41
808,906	30,38
809,211	30,73
809,515	30,7
809,819	31,1
810,123	31,43
810,427	31,71
810,731	31,81
811,035	32,02
811,338	32,15
811,642	32,26
811,946	32,15
812,25	31,97
812,553	32,1
812,857	32,3
813,16	32,67
813,464	32,62
813,767	32,98
814,07	33,29
814,374	33,58
814,677	33,67
814,98	33,67
815,283	33,41
815,586	32,84
815,889	32,54
816,192	32,4
816,495	32,21
816,798	31,68
817,101	31,27
817,404	30,65
817,706	29,86
818,009	29
818,312	28,27
818,614	27,63
818,917	25,98
819,219	23,77
819,521	21,73
819,824	20,08
820,126	18,6
820,428	17,5
820,73	16,86
821,032	16,5
821,334	16,21
821,636	16,11
821,938	15,94
822,24	15,84
822,542	15,71
822,844	15,58
823,145	15,52
823,447	15,39
823,749	15,4
824,05	15,32
824,352	15,29
824,653	15,21
824,955	15,14
825,256	15,24
825,557	15,43
825,858	15,73
826,16	16,06
826,461	16,44
826,762	16,84
827,063	17,35
827,364	17,7
827,665	18,18
827,965	18,52
828,266	18,92
828,567	19,27
828,868	19,66
829,168	20,05
829,469	20,4
829,769	20,76
830,07	21,06
830,37	21,64
830,67	22
830,971	22,48
831,271	22,92
831,571	23,31
831,871	23,62
832,171	23,76
832,471	23,92
832,771	24,3
833,071	24,53
833,371	24,57
833,671	24,66
833,971	24,64
834,27	24,55
834,57	24,55
834,869	24,63
835,169	24,91
835,468	25,16
835,768	25,09
836,067	25,27
836,367	25,49
836,666	25,76
836,965	26,15
837,264	26,74
837,563	27,36
837,862	27,78
838,161	28,74
838,46	29,71
838,759	30,8
839,058	31,67
839,356	32,56
839,655	33,11
839,954	34,34
840,252	35,04
840,551	35,96
840,849	37,31
841,148	37,91
841,446	38,06
841,744	38,03
842,043	38,61
842,341	38,95
842,639	39,57
842,937	39,72
843,235	40,24
843,533	41,05
843,831	42,08
844,129	43,17
844,427	43,92
844,724	44,87
845,022	45,76
845,32	46,83
845,617	47,96
845,915	49,35
846,212	49,76
846,51	50,98
846,807	51,85
847,104	51,83
847,402	51,75
847,699	52,06
847,996	52,72
848,293	52,84
848,59	52,64
848,887	51,98
849,184	52,62
849,481	53,02
849,778	52,79
850,074	53,16
850,371	53,36
850,668	54,2
850,964	54,94
851,261	55,19
851,557	54,95
851,854	54,71
852,15	54,45
852,446	54,74
852,743	54,27
853,039	53,79
853,335	53,91
853,631	54,71
853,927	54,23
854,223	53,88
854,519	54,2
854,815	54,11
855,111	54,46
855,406	54,36
855,702	53,97
855,998	53,75
856,293	53,34
856,589	53,5
856,884	53,38
857,18	52,84
857,475	52,9
857,77	53,5
858,066	54,31
858,361	55,07
858,656	54,79
858,951	55,45
859,246	55,57
859,541	55,7
859,836	55,9
860,131	56,32
860,426	57,26
860,72	57,52
861,015	58,25
861,31	58,75
861,604	59,06
861,899	59,71
862,193	59,82
862,487	60,92
862,782	61,68
863,076	61,32
863,37	61,52
863,664	61,12
863,959	60,92
864,253	60,35
864,547	59,98
864,841	59,74
865,135	58,81
865,428	59,24
865,722	59,08
866,016	59,53
866,31	59,92
866,603	59,48
866,897	59,76
867,19	60,37
867,484	60,69
867,777	60,45
868,07	60,32
868,364	60,42
868,657	60,2
868,95	59,85
869,243	60,59
869,536	60,7
869,829	60,81
870,122	60,56
870,415	60,74
870,708	60,83
871	61,03
871,293	62,23
871,586	62,84
871,878	62,64
872,171	61,65
872,463	61,65
872,756	61,22
873,048	60,73
873,341	60,27
873,633	59,8
873,925	59,8
874,217	59,84
874,509	60,1
874,801	59,2
875,093	58,89
875,385	58,1
875,677	57,5
875,969	57,62
