Data from zc_m2_p1_Reflection_2,txt Node
Date: Wed Nov 25 16:43:19 GMT-03:00 2020
User: Darío
Spectrometer: USB2E3644
Trigger mode: 4
Integration Time (sec): 9,000000E-2
Scans to average: 10
Electric dark correction enabled: true
Nonlinearity correction enabled: false
Boxcar width: 10
XAxis mode: Wavelengths
Number of Pixels in Spectrum: 2048
>>>>>Begin Spectral Data<<<<<
178,315	158,31
178,696	130,26
179,076	109,71
179,457	86,06
179,838	81,2
180,218	78,26
180,599	55,96
180,979	345,45
181,36	17,73
181,74	-119,12
182,121	259,7
182,501	128,43
182,881	125,78
183,262	127,66
183,642	131,83
184,022	128,86
184,402	123,97
184,783	120,61
185,163	119,23
185,543	121,52
185,923	124
186,303	127,58
186,683	123,66
187,063	118,25
187,443	117,98
187,823	117,31
188,203	113,52
188,583	112,29
188,963	112,75
189,343	111,1
189,723	110,74
190,102	113,07
190,482	115,29
190,862	115,75
191,242	114,13
191,621	116,07
192,001	116,61
192,38	115,49
192,76	114,74
193,14	113,27
193,519	112,44
193,898	111,09
194,278	108,35
194,657	108,87
195,037	109,3
195,416	108,03
195,795	108,46
196,175	109,32
196,554	109,15
196,933	109,24
197,312	108,9
197,692	108,35
198,071	105,21
198,45	101,78
198,829	101,07
199,208	101,68
199,587	100,68
199,966	100,67
200,345	101,84
200,724	101,93
201,103	101,43
201,482	99,6
201,86	99,79
202,239	101,56
202,618	101,37
202,997	101,69
203,375	101,7
203,754	100,49
204,133	100,8
204,511	100,7
204,89	100,61
205,269	99,23
205,647	98,89
206,026	101,78
206,404	104,67
206,782	106,64
207,161	107,73
207,539	108
207,918	109,16
208,296	108,99
208,674	108,79
209,052	109,08
209,431	110,82
209,809	111,91
210,187	109,91
210,565	110,59
210,943	111,74
211,321	113,27
211,699	115,13
212,077	116,53
212,455	118,03
212,833	118,8
213,211	119,75
213,589	119,94
213,967	119,11
214,345	117,18
214,722	113,57
215,1	109,42
215,478	106,44
215,855	103,57
216,233	103,16
216,611	102,65
216,988	103,21
217,366	102,94
217,743	101,25
218,121	102,44
218,498	103,55
218,876	103,84
219,253	103,29
219,631	102,46
220,008	100,55
220,385	100,56
220,762	99,39
221,14	101,31
221,517	103,59
221,894	104,48
222,271	107,93
222,648	111,69
223,025	115,48
223,402	119,1
223,78	120,07
224,157	119,32
224,533	122,09
224,91	122,63
225,287	122,21
225,664	121,85
226,041	123,5
226,418	123,2
226,795	124,51
227,171	124,87
227,548	130,02
227,925	137,53
228,301	141,26
228,678	142,87
229,055	142,7
229,431	142,14
229,808	138,64
230,184	137,01
230,561	137,33
230,937	139,67
231,313	142,49
231,69	148,88
232,066	155,47
232,442	158,02
232,819	162,52
233,195	167,49
233,571	175,74
233,947	174,25
234,323	174,99
234,699	176,44
235,075	181,19
235,451	183,77
235,827	181,6
236,203	180,08
236,579	194,34
236,955	209,15
237,331	226,59
237,707	269,83
238,083	331,05
238,459	433,5
238,834	768,46
239,21	3907,83
239,586	-1450,8
239,961	-867,55
240,337	-706,58
240,713	-481,81
241,088	-352,21
241,464	-296,92
241,839	-248,93
242,215	-204,7
242,59	-165,03
242,965	-127,56
243,341	-93,68
243,716	-73,69
244,091	-62,72
244,467	-55,04
244,842	-49,72
245,217	-47,46
245,592	-45,92
245,967	-47,1
246,343	-46,91
246,718	-48,36
247,093	-49,84
247,468	-50,38
247,843	-50,41
248,218	-48,57
248,593	-47,94
248,967	-45,91
249,342	-43,97
249,717	-42,88
250,092	-42,54
250,467	-42,54
250,841	-45,29
251,216	-51,29
251,591	-57,57
251,965	-62,37
252,34	-67,34
252,714	-70,89
253,089	-71,13
253,463	-68,94
253,838	-63,57
254,212	-59,25
254,587	-55,8
254,961	-52,86
255,335	-49,48
255,71	-42,35
256,084	-34,15
256,458	-27,94
256,832	-23,96
257,206	-21,68
257,581	-20,2
257,955	-19,94
258,329	-19,55
258,703	-18,33
259,077	-16,92
259,451	-15,96
259,825	-15,44
260,199	-15,01
260,572	-15,2
260,946	-15,95
261,32	-16,43
261,694	-16,56
262,068	-16,7
262,441	-16,33
262,815	-15,79
263,189	-15,53
263,562	-15,61
263,936	-16,82
264,309	-17,93
264,683	-19,44
265,056	-20,02
265,43	-19,75
265,803	-18,79
266,176	-18,05
266,55	-17,57
266,923	-17,27
267,296	-17,08
267,67	-16,88
268,043	-17,13
268,416	-17,02
268,789	-15,97
269,162	-14,74
269,535	-13,68
269,908	-12,92
270,281	-12,49
270,654	-12,23
271,027	-12,36
271,4	-12,78
271,773	-12,9
272,146	-13,29
272,519	-13,53
272,891	-13,86
273,264	-14,46
273,637	-14,6
274,01	-15,01
274,382	-15,54
274,755	-15,93
275,127	-16,1
275,5	-16,06
275,872	-15,66
276,245	-15,25
276,617	-15,31
276,99	-15,98
277,362	-16,56
277,734	-16,67
278,107	-16,79
278,479	-16,09
278,851	-15,11
279,223	-14,25
279,596	-13,56
279,968	-13,08
280,34	-12,78
280,712	-12,77
281,084	-12,21
281,456	-12,05
281,828	-11,62
282,2	-10,96
282,572	-10,2
282,944	-9,44
283,315	-8,88
283,687	-8,43
284,059	-8,06
284,431	-7,64
284,802	-7,37
285,174	-7,35
285,546	-7,19
285,917	-7,08
286,289	-7,16
286,66	-7,16
287,032	-7,12
287,403	-7,28
287,775	-7,15
288,146	-7,11
288,518	-7,12
288,889	-7,29
289,26	-7,1
289,632	-7,08
290,003	-7,29
290,374	-7,73
290,745	-8,31
291,116	-8,56
291,487	-8,74
291,858	-9
292,229	-9,31
292,6	-8,96
292,971	-8,62
293,342	-8,36
293,713	-7,88
294,084	-7,62
294,455	-7,46
294,826	-7,45
295,196	-7,24
295,567	-7,07
295,938	-6,99
296,308	-6,81
296,679	-6,48
297,05	-6,29
297,42	-6,22
297,791	-6,1
298,161	-6,04
298,532	-5,9
298,902	-5,94
299,272	-5,78
299,643	-5,31
300,013	-4,84
300,383	-4,84
300,754	-4,71
301,124	-4,77
301,494	-4,99
301,864	-4,93
302,234	-4,94
302,604	-4,72
302,974	-4,59
303,344	-4,46
303,714	-4,11
304,084	-3,71
304,454	-3,42
304,824	-3,29
305,194	-3,07
305,563	-3
305,933	-2,59
306,303	-2,15
306,673	-1,73
307,042	-1,78
307,412	-1,93
307,781	-1,9
308,151	-1,8
308,521	-1,79
308,89	-1,58
309,259	-1,3
309,629	-1,25
309,998	-1,21
310,368	-1,31
310,737	-1,28
311,106	-1,46
311,475	-1,5
311,845	-1,6
312,214	-1,79
312,583	-1,92
312,952	-1,93
313,321	-1,81
313,69	-1,88
314,059	-1,95
314,428	-1,85
314,797	-1,53
315,166	-1,41
315,535	-1,45
315,904	-1,58
316,272	-1,73
316,641	-1,84
317,01	-1,87
317,379	-1,79
317,747	-1,71
318,116	-1,58
318,484	-1,56
318,853	-1,46
319,221	-1,65
319,59	-1,6
319,958	-1,45
320,327	-1,21
320,695	-1,03
321,063	-0,79
321,432	-0,59
321,8	-0,57
322,168	-0,65
322,536	-0,71
322,905	-0,86
323,273	-0,9
323,641	-0,78
324,009	-0,6
324,377	-0,41
324,745	-0,4
325,113	-0,28
325,481	-0,29
325,849	-0,36
326,216	-0,34
326,584	-0,22
326,952	-0,04
327,32	0,01
327,687	0,02
328,055	-0,08
328,423	-0,06
328,79	-0,02
329,158	-0,09
329,525	-0,13
329,893	-0,04
330,26	0,22
330,628	0,47
330,995	0,63
331,362	0,76
331,73	0,89
332,097	0,88
332,464	0,94
332,831	0,9
333,199	1,16
333,566	1,32
333,933	1,5
334,3	1,6
334,667	1,72
335,034	1,67
335,401	1,8
335,768	1,99
336,135	2,06
336,502	2,05
336,868	2,23
337,235	2,4
337,602	2,59
337,969	2,58
338,335	2,59
338,702	2,56
339,069	2,54
339,435	2,59
339,802	2,62
340,168	2,63
340,535	2,68
340,901	2,74
341,267	2,76
341,634	2,78
342	2,75
342,366	2,7
342,733	2,75
343,099	2,7
343,465	2,57
343,831	2,5
344,197	2,52
344,563	2,53
344,929	2,53
345,295	2,38
345,661	2,33
346,027	2,37
346,393	2,5
346,759	2,6
347,125	2,65
347,491	2,78
347,856	2,88
348,222	2,94
348,588	2,86
348,953	2,94
349,319	3,05
349,684	3,13
350,05	3,13
350,415	3,2
350,781	3,3
351,146	3,47
351,512	3,58
351,877	3,65
352,242	3,64
352,608	3,79
352,973	3,94
353,338	3,99
353,703	4
354,068	3,95
354,433	3,9
354,798	3,86
355,164	3,76
355,528	3,71
355,893	3,66
356,258	3,62
356,623	3,59
356,988	3,54
357,353	3,52
357,718	3,64
358,082	3,75
358,447	3,79
358,812	3,82
359,176	3,92
359,541	3,94
359,905	4,01
360,27	3,95
360,634	3,91
360,999	3,88
361,363	3,92
361,728	3,99
362,092	4,1
362,456	4,17
362,821	4,2
363,185	4,29
363,549	4,41
363,913	4,51
364,277	4,56
364,641	4,6
365,005	4,66
365,369	4,65
365,733	4,61
366,097	4,66
366,461	4,67
366,825	4,64
367,189	4,71
367,553	4,82
367,916	4,9
368,28	4,97
368,644	5,08
369,007	5,16
369,371	5,15
369,734	5,22
370,098	5,34
370,461	5,5
370,825	5,57
371,188	5,62
371,552	5,7
371,915	5,82
372,278	5,95
372,642	6,08
373,005	6,17
373,368	6,25
373,731	6,34
374,094	6,43
374,457	6,52
374,82	6,56
375,183	6,6
375,546	6,68
375,909	6,73
376,272	6,77
376,635	6,83
376,998	6,96
377,361	7,04
377,723	7,1
378,086	7,15
378,449	7,24
378,811	7,3
379,174	7,31
379,537	7,34
379,899	7,35
380,262	7,34
380,624	7,38
380,987	7,43
381,349	7,46
381,711	7,49
382,074	7,51
382,436	7,52
382,798	7,66
383,16	7,65
383,522	7,66
383,884	7,71
384,247	7,74
384,609	7,79
384,971	7,8
385,333	7,77
385,695	7,76
386,056	7,71
386,418	7,73
386,78	7,77
387,142	7,78
387,504	7,74
387,865	7,75
388,227	7,76
388,589	7,79
388,95	7,78
389,312	7,8
389,673	7,84
390,035	7,87
390,396	7,74
390,758	7,76
391,119	7,8
391,48	7,8
391,842	7,78
392,203	7,74
392,564	7,73
392,925	7,77
393,286	7,75
393,648	7,75
394,009	7,74
394,37	7,73
394,731	7,78
395,092	7,83
395,452	7,82
395,813	7,84
396,174	7,85
396,535	7,87
396,896	7,89
397,257	7,91
397,617	7,94
397,978	8,02
398,338	8,04
398,699	8,05
399,06	8,11
399,42	8,13
399,781	8,14
400,141	8,15
400,501	8,11
400,862	8,14
401,222	8,16
401,582	8,15
401,943	8,14
402,303	8,12
402,663	8,13
403,023	8,14
403,383	8,15
403,743	8,15
404,103	8,15
404,463	8,13
404,823	8,14
405,183	8,15
405,543	8,12
405,903	8,1
406,262	8,08
406,622	8,01
406,982	8,01
407,342	8,02
407,701	8,03
408,061	8,07
408,42	8,08
408,78	8,09
409,139	8,15
409,499	8,17
409,858	8,18
410,217	8,18
410,577	8,19
410,936	8,16
411,295	8,13
411,655	8,11
412,014	8,12
412,373	8,09
412,732	8,03
413,091	8,01
413,45	7,99
413,809	7,97
414,168	7,95
414,527	7,9
414,886	7,85
415,245	7,83
415,603	7,78
415,962	7,75
416,321	7,7
416,679	7,61
417,038	7,55
417,397	7,51
417,755	7,45
418,114	7,41
418,472	7,4
418,831	7,39
419,189	7,37
419,547	7,34
419,906	7,32
420,264	7,3
420,622	7,29
420,981	7,28
421,339	7,27
421,697	7,26
422,055	7,29
422,413	7,3
422,771	7,29
423,129	7,29
423,487	7,3
423,845	7,33
424,203	7,38
424,56	7,42
424,918	7,44
425,276	7,5
425,634	7,53
425,991	7,56
426,349	7,58
426,707	7,62
427,064	7,66
427,422	7,69
427,779	7,76
428,137	7,79
428,494	7,84
428,851	7,88
429,209	7,91
429,566	7,88
429,923	7,89
430,28	7,9
430,637	7,94
430,995	7,93
431,352	7,91
431,709	7,9
432,066	7,89
432,423	7,89
432,78	7,88
433,137	7,88
433,493	7,88
433,85	7,89
434,207	7,85
434,564	7,83
434,92	7,85
435,277	7,84
435,634	7,83
435,99	7,82
436,347	7,8
436,703	7,8
437,06	7,8
437,416	7,79
437,773	7,77
438,129	7,75
438,485	7,75
438,841	7,76
439,198	7,76
439,554	7,77
439,91	7,79
440,266	7,79
440,622	7,8
440,978	7,8
441,334	7,79
441,69	7,79
442,046	7,77
442,402	7,73
442,758	7,7
443,113	7,68
443,469	7,68
443,825	7,69
444,181	7,68
444,536	7,69
444,892	7,69
445,247	7,71
445,603	7,72
445,958	7,74
446,314	7,75
446,669	7,76
447,025	7,74
447,38	7,74
447,735	7,75
448,09	7,75
448,446	7,75
448,801	7,76
449,156	7,78
449,511	7,81
449,866	7,86
450,221	7,91
450,576	7,97
450,931	8
451,286	8,04
451,641	8,07
451,995	8,11
452,35	8,14
452,705	8,16
453,06	8,15
453,414	8,16
453,769	8,16
454,123	8,15
454,478	8,19
454,832	8,18
455,187	8,16
455,541	8,16
455,896	8,15
456,25	8,12
456,604	8,11
456,958	8,09
457,313	8,06
457,667	8,03
458,021	8,02
458,375	8,03
458,729	8,03
459,083	8,05
459,437	8,05
459,791	8,04
460,145	8,04
460,499	8,05
460,852	8,05
461,206	8,05
461,56	8,05
461,914	8,04
462,267	8,02
462,621	8,03
462,974	8,04
463,328	8,06
463,681	8,09
464,035	8,11
464,388	8,13
464,742	8,16
465,095	8,19
465,448	8,19
465,801	8,18
466,155	8,18
466,508	8,18
466,861	8,19
467,214	8,2
467,567	8,21
467,92	8,21
468,273	8,22
468,626	8,22
468,979	8,22
469,332	8,24
469,684	8,26
470,037	8,28
470,39	8,29
470,743	8,28
471,095	8,31
471,448	8,32
471,8	8,33
472,153	8,34
472,505	8,35
472,858	8,36
473,21	8,38
473,562	8,39
473,915	8,39
474,267	8,39
474,619	8,39
474,971	8,37
475,324	8,38
475,676	8,37
476,028	8,37
476,38	8,37
476,732	8,36
477,084	8,35
477,436	8,33
477,787	8,33
478,139	8,33
478,491	8,31
478,843	8,28
479,195	8,29
479,546	8,25
479,898	8,2
480,249	8,14
480,601	8,08
480,952	8,04
481,304	8,03
481,655	8,02
482,007	8
482,358	8
482,709	7,99
483,061	7,98
483,412	7,98
483,763	7,96
484,114	7,94
484,465	7,92
484,816	7,91
485,167	7,9
485,518	7,89
485,869	7,89
486,22	7,9
486,571	7,9
486,922	7,91
487,272	7,93
487,623	7,93
487,974	7,95
488,324	7,97
488,675	7,96
489,025	7,96
489,376	7,96
489,726	7,97
490,077	7,98
490,427	7,99
490,778	8
491,128	8,04
491,478	8,07
491,828	8,11
492,179	8,16
492,529	8,19
492,879	8,22
493,229	8,23
493,579	8,24
493,929	8,25
494,279	8,25
494,629	8,27
494,979	8,3
495,328	8,31
495,678	8,35
496,028	8,38
496,378	8,43
496,727	8,46
497,077	8,49
497,426	8,51
497,776	8,52
498,125	8,53
498,475	8,52
498,824	8,51
499,174	8,5
499,523	8,49
499,872	8,5
500,221	8,51
500,571	8,52
500,92	8,53
501,269	8,54
501,618	8,54
501,967	8,52
502,316	8,52
502,665	8,54
503,014	8,56
503,363	8,58
503,711	8,58
504,06	8,59
504,409	8,58
504,758	8,56
505,106	8,55
505,455	8,55
505,803	8,55
506,152	8,54
506,5	8,53
506,849	8,54
507,197	8,52
507,546	8,52
507,894	8,5
508,242	8,5
508,59	8,5
508,939	8,51
509,287	8,51
509,635	8,51
509,983	8,51
510,331	8,51
510,679	8,52
511,027	8,52
511,375	8,53
511,723	8,54
512,07	8,55
512,418	8,57
512,766	8,58
513,114	8,59
513,461	8,63
513,809	8,65
514,156	8,64
514,504	8,64
514,851	8,63
515,199	8,63
515,546	8,62
515,893	8,59
516,241	8,61
516,588	8,61
516,935	8,64
517,282	8,65
517,63	8,67
517,977	8,66
518,324	8,67
518,671	8,65
519,018	8,64
519,365	8,64
519,711	8,64
520,058	8,65
520,405	8,66
520,752	8,65
521,099	8,66
521,445	8,68
521,792	8,68
522,138	8,69
522,485	8,71
522,832	8,71
523,178	8,73
523,524	8,72
523,871	8,71
524,217	8,68
524,563	8,66
524,91	8,61
525,256	8,58
525,602	8,55
525,948	8,54
526,294	8,53
526,64	8,51
526,986	8,49
527,332	8,48
527,678	8,47
528,024	8,47
528,37	8,47
528,716	8,47
529,061	8,47
529,407	8,48
529,753	8,48
530,098	8,47
530,444	8,47
530,789	8,47
531,135	8,47
531,48	8,48
531,826	8,49
532,171	8,5
532,516	8,53
532,862	8,56
533,207	8,58
533,552	8,6
533,897	8,63
534,242	8,65
534,587	8,67
534,932	8,7
535,277	8,72
535,622	8,7
535,967	8,72
536,312	8,75
536,657	8,76
537,001	8,77
537,346	8,8
537,691	8,79
538,035	8,78
538,38	8,78
538,724	8,76
539,069	8,76
539,413	8,77
539,758	8,76
540,102	8,76
540,446	8,75
540,791	8,76
541,135	8,75
541,479	8,74
541,823	8,73
542,167	8,71
542,512	8,72
542,856	8,72
543,2	8,69
543,543	8,68
543,887	8,68
544,231	8,7
544,575	8,71
544,919	8,74
545,262	8,77
545,606	8,8
545,95	8,83
546,293	8,83
546,637	8,83
546,98	8,87
547,324	8,88
547,667	8,89
548,011	8,9
548,354	8,93
548,697	8,93
549,04	8,94
549,384	8,94
549,727	8,91
550,07	8,95
550,413	8,98
550,756	9,01
551,099	8,99
551,442	8,96
551,785	8,96
552,128	8,95
552,47	8,95
552,813	8,94
553,156	8,93
553,499	8,93
553,841	8,91
554,184	8,88
554,526	8,87
554,869	8,85
555,211	8,83
555,554	8,82
555,896	8,82
556,238	8,81
556,581	8,8
556,923	8,8
557,265	8,77
557,607	8,74
557,949	8,71
558,291	8,71
558,633	8,7
558,975	8,67
559,317	8,65
559,659	8,64
560,001	8,62
560,343	8,6
560,685	8,57
561,026	8,57
561,368	8,56
561,71	8,54
562,051	8,53
562,393	8,53
562,734	8,51
563,076	8,49
563,417	8,5
563,759	8,48
564,1	8,49
564,441	8,46
564,782	8,46
565,124	8,44
565,465	8,42
565,806	8,41
566,147	8,41
566,488	8,4
566,829	8,37
567,17	8,34
567,511	8,33
567,851	8,33
568,192	8,32
568,533	8,32
568,874	8,31
569,214	8,29
569,555	8,26
569,895	8,29
570,236	8,27
570,576	8,25
570,917	8,23
571,257	8,2
571,598	8,21
571,938	8,18
572,278	8,16
572,618	8,17
572,959	8,14
573,299	8,13
573,639	8,13
573,979	8,12
574,319	8,12
574,659	8,1
574,999	8,08
575,339	8,05
575,678	8,03
576,018	8
576,358	7,97
576,698	7,97
577,037	7,93
577,377	7,91
577,716	7,88
578,056	7,9
578,395	7,91
578,735	7,88
579,074	7,9
579,413	7,89
579,753	7,85
580,092	7,84
580,431	7,84
580,77	7,81
581,109	7,81
581,448	7,79
581,787	7,76
582,126	7,74
582,465	7,73
582,804	7,75
583,143	7,8
583,482	7,82
583,82	7,81
584,159	7,8
584,498	7,83
584,836	7,84
585,175	7,8
585,514	7,78
585,852	7,77
586,19	7,79
586,529	7,8
586,867	7,82
587,205	7,87
587,544	7,91
587,882	7,89
588,22	7,9
588,558	7,93
588,896	7,98
589,234	8,02
589,572	8,04
589,91	8,04
590,248	8,01
590,586	8
590,924	8,01
591,262	8,03
591,599	8,02
591,937	8,01
592,275	8,04
592,612	8,05
592,95	8,11
593,287	8,11
593,625	8,12
593,962	8,14
594,299	8,14
594,637	8,14
594,974	8,17
595,311	8,19
595,648	8,16
595,985	8,16
596,322	8,13
596,659	8,14
596,996	8,14
597,333	8,15
597,67	8,16
598,007	8,15
598,344	8,14
598,681	8,16
599,017	8,16
599,354	8,14
599,691	8,14
600,027	8,12
600,364	8,1
600,7	8,1
601,037	8,09
601,373	8,11
601,71	8,13
602,046	8,17
602,382	8,19
602,718	8,21
603,054	8,21
603,391	8,24
603,727	8,24
604,063	8,25
604,399	8,24
604,735	8,24
605,071	8,25
605,406	8,28
605,742	8,29
606,078	8,31
606,414	8,31
606,749	8,32
607,085	8,33
607,421	8,34
607,756	8,34
608,092	8,35
608,427	8,33
608,762	8,31
609,098	8,28
609,433	8,25
609,768	8,23
610,104	8,23
610,439	8,2
610,774	8,18
611,109	8,18
611,444	8,19
611,779	8,18
612,114	8,2
612,449	8,18
612,784	8,15
613,118	8,14
613,453	8,14
613,788	8,13
614,123	8,08
614,457	8,06
614,792	8,05
615,126	8,01
615,461	7,97
615,795	7,93
616,13	7,93
616,464	7,92
616,798	7,96
617,132	7,99
617,467	8
617,801	8,01
618,135	8,01
618,469	8
618,803	7,98
619,137	7,97
619,471	7,98
619,805	7,98
620,139	8
620,472	8,01
620,806	8,01
621,14	8,03
621,473	8,06
621,807	8,03
622,141	8,05
622,474	8,08
622,808	8,12
623,141	8,11
623,474	8,16
623,808	8,14
624,141	8,14
624,474	8,15
624,807	8,15
625,141	8,15
625,474	8,19
625,807	8,23
626,14	8,26
626,473	8,25
626,806	8,26
627,138	8,26
627,471	8,25
627,804	8,25
628,137	8,27
628,469	8,27
628,802	8,34
629,135	8,39
629,467	8,43
629,8	8,43
630,132	8,43
630,465	8,4
630,797	8,41
631,129	8,39
631,461	8,43
631,794	8,45
632,126	8,44
632,458	8,44
632,79	8,44
633,122	8,44
633,454	8,44
633,786	8,44
634,118	8,46
634,45	8,48
634,781	8,51
635,113	8,52
635,445	8,54
635,777	8,51
636,108	8,44
636,44	8,37
636,771	8,4
637,103	8,41
637,434	8,41
637,765	8,41
638,097	8,44
638,428	8,38
638,759	8,35
639,09	8,39
639,422	8,36
639,753	8,35
640,084	8,34
640,415	8,35
640,746	8,35
641,077	8,32
641,407	8,31
641,738	8,31
642,069	8,26
642,4	8,23
642,73	8,21
643,061	8,25
643,392	8,28
643,722	8,27
644,053	8,28
644,383	8,28
644,713	8,3
645,044	8,29
645,374	8,33
645,704	8,33
646,034	8,32
646,365	8,34
646,695	8,36
647,025	8,38
647,355	8,41
647,685	8,42
648,015	8,45
648,344	8,46
648,674	8,45
649,004	8,46
649,334	8,51
649,663	8,51
649,993	8,54
650,323	8,55
650,652	8,52
650,982	8,47
651,311	8,45
651,64	8,41
651,97	8,42
652,299	8,41
652,628	8,42
652,958	8,39
653,287	8,41
653,616	8,35
653,945	8,32
654,274	8,28
654,603	8,28
654,932	8,28
655,261	8,3
655,589	8,33
655,918	8,34
656,247	8,32
656,576	8,37
656,904	8,4
657,233	8,47
657,561	8,5
657,89	8,53
658,218	8,58
658,547	8,61
658,875	8,62
659,203	8,62
659,532	8,61
659,86	8,66
660,188	8,64
660,516	8,66
660,844	8,67
661,172	8,72
661,5	8,73
661,828	8,73
662,156	8,71
662,484	8,7
662,811	8,7
663,139	8,72
663,467	8,66
663,794	8,61
664,122	8,56
664,45	8,57
664,777	8,58
665,104	8,59
665,432	8,58
665,759	8,56
666,086	8,58
666,414	8,63
666,741	8,58
667,068	8,65
667,395	8,72
667,722	8,77
668,049	8,78
668,376	8,77
668,703	8,78
669,03	8,84
669,357	8,88
669,683	8,89
670,01	8,92
670,337	9,01
670,663	9,04
670,99	9,06
671,317	9,07
671,643	9,06
671,969	9,02
672,296	9,04
672,622	9,08
672,948	9,06
673,275	9,03
673,601	9,04
673,927	9,02
674,253	8,96
674,579	8,91
674,905	8,86
675,231	8,89
675,557	8,96
675,883	8,89
676,209	8,89
676,534	8,92
676,86	8,95
677,186	8,91
677,511	8,92
677,837	8,95
678,162	9,01
678,488	9,05
678,813	9,05
679,139	9,03
679,464	9,07
679,789	9,09
680,114	9,18
680,44	9,21
680,765	9,24
681,09	9,29
681,415	9,33
681,74	9,35
682,065	9,34
682,39	9,27
682,714	9,29
683,039	9,27
683,364	9,25
683,689	9,21
684,013	9,21
684,338	9,15
684,662	9,11
684,987	9,05
685,311	9,06
685,636	9,11
685,96	9,13
686,284	9,06
686,608	9,05
686,933	9
687,257	9,03
687,581	9,01
687,905	8,99
688,229	8,99
688,553	8,95
688,877	8,95
689,201	8,96
689,524	9,01
689,848	9,06
690,172	9,12
690,496	9,14
690,819	9,18
691,143	9,22
691,466	9,26
691,79	9,31
692,113	9,33
692,436	9,34
692,76	9,34
693,083	9,37
693,406	9,42
693,729	9,4
694,053	9,35
694,376	9,35
694,699	9,32
695,022	9,35
695,344	9,42
695,667	9,48
695,99	9,54
696,313	9,54
696,636	9,57
696,958	9,55
697,281	9,51
697,604	9,56
697,926	9,57
698,249	9,57
698,571	9,51
698,893	9,49
699,216	9,49
699,538	9,5
699,86	9,52
700,182	9,55
700,504	9,55
700,827	9,47
701,149	9,42
701,471	9,41
701,793	9,38
702,114	9,33
702,436	9,3
702,758	9,24
703,08	9,15
703,401	9,07
703,723	9,08
704,045	9,14
704,366	9,07
704,688	9,08
705,009	9,04
705,331	9,06
705,652	9,1
705,973	9,11
706,294	9,13
706,616	9,15
706,937	9,11
707,258	9,09
707,579	9,18
707,9	9,24
708,221	9,36
708,542	9,4
708,863	9,46
709,183	9,51
709,504	9,59
709,825	9,69
710,145	9,79
710,466	9,84
710,787	9,81
711,107	9,81
711,427	9,85
711,748	9,92
712,068	9,98
712,388	9,98
712,709	9,99
713,029	9,98
713,349	9,98
713,669	10,05
713,989	10,14
714,309	10,22
714,629	10,25
714,949	10,27
715,269	10,28
715,589	10,26
715,908	10,25
716,228	10,23
716,548	10,23
716,867	10,16
717,187	10,16
717,506	10,21
717,826	10,32
718,145	10,36
718,465	10,39
718,784	10,46
719,103	10,52
719,422	10,58
719,741	10,62
720,061	10,67
720,38	10,69
720,699	10,72
721,018	10,78
721,336	10,91
721,655	11
721,974	11,08
722,293	11,15
722,612	11,21
722,93	11,31
723,249	11,41
723,567	11,53
723,886	11,66
724,204	11,91
724,523	12,13
724,841	12,26
725,159	12,43
725,477	12,49
725,796	12,63
726,114	12,73
726,432	12,91
726,75	13,02
727,068	13,09
727,386	13,14
727,704	13,17
728,022	13,22
728,339	13,27
728,657	13,39
728,975	13,62
729,292	13,82
729,61	13,88
729,928	13,99
730,245	14,04
730,562	14,04
730,88	14,03
731,197	13,95
731,514	13,99
731,832	14,1
732,149	14,24
732,466	14,33
732,783	14,46
733,1	14,56
733,417	14,64
733,734	14,77
734,051	14,91
734,368	15,12
734,684	15,28
735,001	15,39
735,318	15,45
735,634	15,45
735,951	15,41
736,268	15,48
736,584	15,51
736,9	15,62
737,217	15,78
737,533	15,84
737,849	15,98
738,166	16,07
738,482	16,05
738,798	16,08
739,114	16,19
739,43	16,16
739,746	16,2
740,062	16,26
740,378	16,3
740,693	16,37
741,009	16,3
741,325	16,29
741,641	16,32
741,956	16,46
742,272	16,6
742,587	16,78
742,903	17,05
743,218	17,29
743,533	17,48
743,849	17,56
744,164	17,74
744,479	17,78
744,794	17,8
745,109	17,85
745,424	17,9
745,739	17,92
746,054	18,16
746,369	18,22
746,684	18,36
746,999	18,5
747,313	18,6
747,628	18,73
747,943	18,8
748,257	18,89
748,572	18,95
748,886	19,01
749,201	18,99
749,515	18,86
749,829	18,78
750,144	18,74
750,458	18,8
750,772	18,71
751,086	18,77
751,4	18,93
751,714	19,04
752,028	19,14
752,342	19,19
752,656	19,15
752,97	19,33
753,284	19,34
753,597	19,33
753,911	19,36
754,225	19,47
754,538	19,59
754,852	19,67
755,165	19,69
755,478	19,72
755,792	19,88
756,105	20
756,418	19,97
756,731	19,91
757,045	20,07
757,358	20,17
757,671	20,11
757,984	20,06
758,297	19,97
758,609	19,96
758,922	19,88
759,235	19,73
759,548	19,46
759,86	19,44
760,173	19,3
760,486	19,12
760,798	18,96
761,111	18,73
761,423	18,64
761,735	18,57
762,048	18,6
762,36	18,51
762,672	18,6
762,984	18,74
763,296	18,88
763,608	18,88
763,92	18,91
764,232	19,01
764,544	19,17
764,856	19,39
765,168	19,69
765,48	20
765,791	20,36
766,103	20,7
766,414	20,88
766,726	21,18
767,037	21,56
767,349	22,05
767,66	22,57
767,972	22,97
768,283	23,4
768,594	23,79
768,905	24,15
769,216	24,22
769,527	24,47
769,838	24,71
770,149	24,81
770,46	25,03
770,771	25,36
771,082	25,5
771,393	25,56
771,703	25,47
772,014	25,48
772,324	25,5
772,635	25,52
772,945	25,81
773,256	26,05
773,566	26,18
773,877	26,17
774,187	26,28
774,497	26,47
774,807	26,71
775,117	26,64
775,427	26,58
775,737	26,6
776,047	26,51
776,357	26,81
776,667	27,06
776,977	27,25
777,287	27,33
777,596	27,29
777,906	27,31
778,216	27,35
778,525	27,15
778,835	27,12
779,144	27,18
779,453	27,09
779,763	26,98
780,072	27,12
780,381	27,23
780,69	27,26
781	27,21
781,309	27,28
781,618	27,36
781,927	27,71
782,235	28,11
782,544	28,58
782,853	28,56
783,162	28,63
783,471	28,6
783,779	28,46
784,088	28,47
784,396	28,43
784,705	28,36
785,013	28,62
785,322	28,81
785,63	28,76
785,938	28,67
786,246	28,67
786,554	28,6
786,863	28,41
787,171	28,32
787,479	28,51
787,787	28,51
788,094	28,64
788,402	28,61
788,71	28,5
789,018	28,13
789,326	27,97
789,633	27,87
789,941	27,92
790,248	28,19
790,556	28,45
790,863	28,82
791,171	28,93
791,478	28,91
791,785	28,9
792,092	28,96
792,399	29,06
792,707	29,42
793,014	29,69
793,321	29,99
793,628	30,39
793,934	30,54
794,241	30,47
794,548	30,58
794,855	30,57
795,161	30,8
795,468	31,3
795,775	31,33
796,081	31,49
796,388	31,66
796,694	31,81
797	31,57
797,307	31,49
797,613	31,49
797,919	31,77
798,225	31,9
798,531	31,93
798,837	32,16
799,143	32,24
799,449	32,31
799,755	32,42
800,061	32,21
800,367	32,03
800,672	32,3
800,978	32,51
801,284	32,65
801,589	32,42
801,895	32,17
802,2	32,61
802,506	32,65
802,811	32,68
803,116	32,69
803,421	32,85
803,727	32,97
804,032	33,19
804,337	33,28
804,642	33,34
804,947	33,58
805,252	33,7
805,556	33,73
805,861	33,75
806,166	33,73
806,471	33,81
806,775	34,14
807,08	34,35
807,384	34,41
807,689	34,54
807,993	34,56
808,298	34,71
808,602	34,84
808,906	34,96
809,211	35,08
809,515	35,02
809,819	35,43
810,123	35,32
810,427	35,28
810,731	35,19
811,035	35,08
811,338	35,3
811,642	35,43
811,946	35,54
812,25	35,57
812,553	35,7
812,857	35,86
813,16	35,56
813,464	34,97
813,767	34,62
814,07	34,53
814,374	34,93
814,677	35,24
814,98	35
815,283	34,92
815,586	34,83
815,889	34,65
816,192	34,37
816,495	34,44
816,798	34,32
817,101	33,81
817,404	33,24
817,706	32,75
818,009	32,02
818,312	31,28
818,614	30,2
818,917	28,79
819,219	26,85
819,521	25,16
819,824	23,6
820,126	22,42
820,428	21,46
820,73	20,82
821,032	20,28
821,334	19,9
821,636	19,72
821,938	19,62
822,24	19,5
822,542	19,45
822,844	19,31
823,145	19,25
823,447	19,21
823,749	19,24
824,05	19,21
824,352	19,15
824,653	19,03
824,955	19,03
825,256	19,08
825,557	19,24
825,858	19,4
826,16	19,78
826,461	20,12
826,762	20,51
827,063	20,92
827,364	21,28
827,665	21,77
827,965	22,15
828,266	22,45
828,567	22,84
828,868	22,98
829,168	23,27
829,469	23,56
829,769	23,89
830,07	24,12
830,37	24,33
830,67	24,64
830,971	25,1
831,271	25,38
831,571	25,81
831,871	26,24
832,171	26,63
832,471	26,9
832,771	27,02
833,071	27,33
833,371	27,6
833,671	27,96
833,971	28,16
834,27	28,08
834,57	28,16
834,869	28,33
835,169	28,83
835,468	29,11
835,768	29,36
836,067	29,5
836,367	29,54
836,666	29,83
836,965	30,49
837,264	31,29
837,563	32,12
837,862	32,8
838,161	33,33
838,46	34,33
838,759	35
839,058	35,94
839,356	36,73
839,655	37,38
839,954	38,01
840,252	38,5
840,551	39,42
840,849	40,4
841,148	41,13
841,446	41,38
841,744	41,67
842,043	41,83
842,341	42,32
842,639	43,22
842,937	43,6
843,235	43,86
843,533	43,9
843,831	44,12
844,129	44,91
844,427	46,16
844,724	47,24
845,022	48,32
845,32	49,14
845,617	49,97
845,915	51,16
846,212	52,11
846,51	53,18
846,807	54,34
847,104	53,69
847,402	53,74
847,699	53,62
847,996	53,8
848,293	54,2
848,59	54,56
848,887	54,45
849,184	54,94
849,481	55,4
849,778	55,74
850,074	56,82
850,371	56,38
850,668	56,53
850,964	56,79
851,261	57,37
851,557	58,92
851,854	59,84
852,15	59,36
852,446	59,72
852,743	59,3
853,039	58,16
853,335	58,71
853,631	58,14
853,927	58,88
854,223	59,07
854,519	58,67
854,815	57,72
855,111	57,83
855,406	57,15
855,702	57,4
855,998	57,93
856,293	57,83
856,589	59,04
856,884	59,28
857,18	58,63
857,475	57,85
857,77	57,21
858,066	56,93
858,361	57,59
858,656	56,92
858,951	57,39
859,246	58,01
859,541	57,99
859,836	58,15
860,131	57,48
860,426	57,12
860,72	57,85
861,015	58,54
861,31	58,41
861,604	58,5
861,899	57,85
862,193	58,16
862,487	58,79
862,782	58,72
863,076	59,49
863,37	60,43
863,664	61,87
863,959	62,58
864,253	63,1
864,547	62,67
864,841	63,19
865,135	62,56
865,428	62,15
865,722	62,3
866,016	62,44
866,31	62,2
866,603	62,68
866,897	62,6
867,19	62,84
867,484	62,72
867,777	63,2
868,07	64,38
868,364	64,49
868,657	64,01
868,95	63,72
869,243	62,59
869,536	62,39
869,829	62,39
870,122	61,64
870,415	61,54
870,708	61,37
871	62,23
871,293	63,04
871,586	64,39
871,878	64,02
872,171	64,53
872,463	64,95
872,756	65,29
873,048	64,48
873,341	64,33
873,633	64,96
873,925	65,24
874,217	64,09
874,509	63,32
874,801	63,31
875,093	63,79
875,385	64,83
875,677	64,6
875,969	63,35
