Data from zc_m2_p2_Reflection_4,txt Node
Date: Wed Nov 25 16:45:31 GMT-03:00 2020
User: Darío
Spectrometer: USB2E3644
Trigger mode: 4
Integration Time (sec): 9,000000E-2
Scans to average: 10
Electric dark correction enabled: true
Nonlinearity correction enabled: false
Boxcar width: 10
XAxis mode: Wavelengths
Number of Pixels in Spectrum: 2048
>>>>>Begin Spectral Data<<<<<
178,315	193,81
178,696	159,21
179,076	140,63
179,457	110,76
179,838	104,51
180,218	104,89
180,599	174,61
180,979	145,45
181,36	-59,61
181,74	-270,59
182,121	431,34
182,501	205,43
182,881	227,23
183,262	218,38
183,642	222,13
184,022	221,61
184,402	210,51
184,783	190,15
185,163	166,13
185,543	156,32
185,923	149,23
186,303	146,28
186,683	139,98
187,063	134,47
187,443	130,85
187,823	129,44
188,203	127,74
188,583	126,83
188,963	124,8
189,343	122,43
189,723	121,54
190,102	122,71
190,482	122,41
190,862	119,53
191,242	117,96
191,621	117,79
192,001	116,48
192,38	114,47
192,76	115,35
193,14	116,18
193,519	116,2
193,898	114,45
194,278	112,1
194,657	113,2
195,037	113,98
195,416	114,02
195,795	114,45
196,175	114,6
196,554	115,21
196,933	114,91
197,312	113,93
197,692	113,45
198,071	110,66
198,45	107,3
198,829	107,13
199,208	108,07
199,587	108,72
199,966	109,54
200,345	110,97
200,724	111,29
201,103	110,78
201,482	110,09
201,86	112,05
202,239	114,93
202,618	116,47
202,997	117,25
203,375	117,59
203,754	116,99
204,133	117,19
204,511	117,49
204,89	118,05
205,269	117,38
205,647	117,06
206,026	119,91
206,404	123,94
206,782	124,29
207,161	124,65
207,539	123,13
207,918	123,53
208,296	122,91
208,674	121,39
209,052	121,23
209,431	123,37
209,809	123,24
210,187	119,49
210,565	117,25
210,943	117,03
211,321	117,39
211,699	118,78
212,077	119,89
212,455	121,06
212,833	123,7
213,211	123,37
213,589	121,91
213,967	120,66
214,345	117,74
214,722	114,53
215,1	111,17
215,478	110,95
215,855	109,44
216,233	108,71
216,611	108,87
216,988	110,12
217,366	111,01
217,743	110,9
218,121	113,06
218,498	115,03
218,876	115,6
219,253	116,26
219,631	114,18
220,008	112,39
220,385	112,2
220,762	110,41
221,14	112,05
221,517	114,63
221,894	116,3
222,271	119,31
222,648	122,77
223,025	125,12
223,402	125,91
223,78	123,56
224,157	122,23
224,533	124,35
224,91	125,6
225,287	124,3
225,664	124,61
226,041	126,62
226,418	127,1
226,795	129,95
227,171	132,07
227,548	138,95
227,925	145,26
228,301	144,92
228,678	143,09
229,055	143,7
229,431	143,35
229,808	139,8
230,184	141,95
230,561	147,15
230,937	152
231,313	156,42
231,69	166,43
232,066	176,49
232,442	180,3
232,819	186,06
233,195	190,52
233,571	195,17
233,947	189,84
234,323	187,73
234,699	188,58
235,075	193,63
235,451	196,05
235,827	197,08
236,203	199,96
236,579	216,66
236,955	235,75
237,331	261,15
237,707	311,4
238,083	372,68
238,459	477,01
238,834	843,5
239,21	4284,35
239,586	-1588,1
239,961	-950,85
240,337	-788,51
240,713	-541,33
241,088	-396,55
241,464	-338
241,839	-286,04
242,215	-238,96
242,59	-193,15
242,965	-149
243,341	-110,22
243,716	-85,88
244,091	-73,04
244,467	-64,19
244,842	-57,8
245,217	-55,31
245,592	-53,84
245,967	-54,27
246,343	-53,56
246,718	-54,54
247,093	-55,85
247,468	-56,55
247,843	-55,8
248,218	-52,96
248,593	-51,14
248,967	-49,03
249,342	-47,26
249,717	-47,47
250,092	-47,83
250,467	-48,8
250,841	-51,51
251,216	-58,16
251,591	-65,38
251,965	-70,88
252,34	-76,91
252,714	-82,48
253,089	-84,42
253,463	-83,47
253,838	-79,89
254,212	-76,68
254,587	-73,89
254,961	-70,88
255,335	-65,23
255,71	-57,47
256,084	-48,12
256,458	-40,92
256,832	-35,5
257,206	-32,73
257,581	-30,43
257,955	-29,17
258,329	-27,94
258,703	-27,04
259,077	-25,71
259,451	-24,85
259,825	-24,34
260,199	-23,9
260,572	-23,8
260,946	-23,91
261,32	-24,14
261,694	-24,19
262,068	-24,09
262,441	-23,22
262,815	-21,94
263,189	-21,73
263,562	-21,64
263,936	-22,83
264,309	-24,36
264,683	-26,87
265,056	-27,57
265,43	-26,8
265,803	-25,79
266,176	-25,06
266,55	-23,72
266,923	-22,81
267,296	-22,6
267,67	-22,56
268,043	-22,33
268,416	-21,43
268,789	-19,95
269,162	-18,37
269,535	-16,91
269,908	-15,98
270,281	-15,44
270,654	-15,18
271,027	-15,14
271,4	-15,56
271,773	-15,69
272,146	-16,11
272,519	-16,03
272,891	-16,19
273,264	-17,03
273,637	-17,28
274,01	-17,13
274,382	-17,84
274,755	-17,97
275,127	-18,2
275,5	-18,19
275,872	-17,73
276,245	-17,47
276,617	-17,6
276,99	-18,37
277,362	-19,21
277,734	-19,18
278,107	-19,23
278,479	-18,48
278,851	-17,64
279,223	-16,44
279,596	-15,62
279,968	-14,53
280,34	-14,08
280,712	-13,84
281,084	-13,41
281,456	-13
281,828	-12,76
282,2	-12,12
282,572	-11,3
282,944	-10,2
283,315	-9,3
283,687	-8,84
284,059	-8,54
284,431	-8,28
284,802	-7,93
285,174	-7,93
285,546	-7,99
285,917	-8,04
286,289	-8,48
286,66	-8,7
287,032	-8,73
287,403	-8,7
287,775	-8,7
288,146	-8,58
288,518	-8,54
288,889	-8,45
289,26	-8,43
289,632	-8,49
290,003	-8,57
290,374	-9,23
290,745	-9,84
291,116	-10,28
291,487	-10,54
291,858	-10,86
292,229	-10,84
292,6	-10,38
292,971	-9,76
293,342	-9,26
293,713	-8,52
294,084	-8,1
294,455	-7,7
294,826	-7,71
295,196	-7,64
295,567	-7,6
295,938	-7,63
296,308	-7,7
296,679	-7,45
297,05	-7,31
297,42	-7,17
297,791	-6,8
298,161	-6,49
298,532	-6,3
298,902	-6,22
299,272	-6,03
299,643	-5,81
300,013	-5,69
300,383	-5,68
300,754	-5,56
301,124	-5,74
301,494	-6,09
301,864	-6,16
302,234	-6,34
302,604	-6,38
302,974	-6,41
303,344	-6,45
303,714	-6,26
304,084	-6,13
304,454	-5,91
304,824	-5,75
305,194	-5,8
305,563	-5,96
305,933	-5,8
306,303	-5,41
306,673	-4,98
307,042	-4,92
307,412	-4,99
307,781	-4,82
308,151	-4,64
308,521	-4,49
308,89	-4,17
309,259	-3,92
309,629	-3,83
309,998	-3,72
310,368	-3,5
310,737	-3,22
311,106	-3,32
311,475	-3,35
311,845	-3,27
312,214	-3,29
312,583	-3,28
312,952	-3,09
313,321	-3,08
313,69	-3,12
314,059	-3,2
314,428	-3,12
314,797	-2,95
315,166	-2,78
315,535	-2,78
315,904	-2,91
316,272	-3,26
316,641	-3,3
317,01	-3,36
317,379	-3,29
317,747	-3,28
318,116	-3,25
318,484	-3,32
318,853	-3,17
319,221	-3,21
319,59	-3,08
319,958	-3,07
320,327	-3
320,695	-2,97
321,063	-2,76
321,432	-2,64
321,8	-2,55
322,168	-2,77
322,536	-2,95
322,905	-3,03
323,273	-3,02
323,641	-2,91
324,009	-2,59
324,377	-2,59
324,745	-2,64
325,113	-2,5
325,481	-2,4
325,849	-2,52
326,216	-2,56
326,584	-2,48
326,952	-2,41
327,32	-2,44
327,687	-2,37
328,055	-2,32
328,423	-2,12
328,79	-2,04
329,158	-2,05
329,525	-2,04
329,893	-1,83
330,26	-1,6
330,628	-1,47
330,995	-1,45
331,362	-1,42
331,73	-1,45
332,097	-1,31
332,464	-1,07
332,831	-1,02
333,199	-0,88
333,566	-0,62
333,933	-0,37
334,3	-0,15
334,667	0,14
335,034	0,2
335,401	0,23
335,768	0,19
336,135	0,04
336,502	0,03
336,868	0,23
337,235	0,35
337,602	0,42
337,969	0,43
338,335	0,55
338,702	0,66
339,069	0,71
339,435	0,82
339,802	0,79
340,168	0,73
340,535	0,69
340,901	0,7
341,267	0,58
341,634	0,57
342	0,51
342,366	0,47
342,733	0,51
343,099	0,55
343,465	0,65
343,831	0,75
344,197	0,82
344,563	0,78
344,929	0,65
345,295	0,56
345,661	0,55
346,027	0,55
346,393	0,64
346,759	0,73
347,125	0,7
347,491	0,82
347,856	0,88
348,222	0,99
348,588	1,06
348,953	1,23
349,319	1,28
349,684	1,32
350,05	1,2
350,415	1,23
350,781	1,32
351,146	1,41
351,512	1,48
351,877	1,52
352,242	1,53
352,608	1,67
352,973	1,8
353,338	1,92
353,703	2,03
354,068	1,98
354,433	1,94
354,798	1,99
355,164	1,97
355,528	2
355,893	1,98
356,258	1,99
356,623	1,93
356,988	1,89
357,353	1,93
357,718	2,11
358,082	2,24
358,447	2,19
358,812	2,1
359,176	2,16
359,541	2,25
359,905	2,37
360,27	2,36
360,634	2,32
360,999	2,3
361,363	2,28
361,728	2,32
362,092	2,36
362,456	2,42
362,821	2,47
363,185	2,56
363,549	2,64
363,913	2,68
364,277	2,73
364,641	2,79
365,005	2,83
365,369	2,84
365,733	2,83
366,097	2,91
366,461	3,02
366,825	3,01
367,189	2,98
367,553	3,03
367,916	3,16
368,28	3,29
368,644	3,39
369,007	3,5
369,371	3,57
369,734	3,69
370,098	3,79
370,461	3,84
370,825	3,94
371,188	4
371,552	4,04
371,915	4,11
372,278	4,23
372,642	4,34
373,005	4,34
373,368	4,34
373,731	4,44
374,094	4,5
374,457	4,61
374,82	4,71
375,183	4,8
375,546	4,86
375,909	4,93
376,272	5,02
376,635	5,09
376,998	5,18
377,361	5,22
377,723	5,2
378,086	5,23
378,449	5,24
378,811	5,29
379,174	5,36
379,537	5,45
379,899	5,48
380,262	5,51
380,624	5,61
380,987	5,69
381,349	5,74
381,711	5,8
382,074	5,8
382,436	5,83
382,798	5,88
383,16	5,9
383,522	5,88
383,884	5,87
384,247	5,87
384,609	5,9
384,971	5,94
385,333	5,96
385,695	5,99
386,056	5,96
386,418	5,99
386,78	6,02
387,142	5,98
387,504	5,97
387,865	5,97
388,227	5,97
388,589	6
388,95	6,01
389,312	6,01
389,673	6,04
390,035	6,03
390,396	5,99
390,758	6,02
391,119	6,07
391,48	6,11
391,842	6,12
392,203	6,11
392,564	6,1
392,925	6,12
393,286	6,13
393,648	6,21
394,009	6,22
394,37	6,23
394,731	6,31
395,092	6,35
395,452	6,34
395,813	6,37
396,174	6,41
396,535	6,44
396,896	6,48
397,257	6,51
397,617	6,56
397,978	6,61
398,338	6,62
398,699	6,66
399,06	6,69
399,42	6,68
399,781	6,72
400,141	6,73
400,501	6,73
400,862	6,74
401,222	6,72
401,582	6,69
401,943	6,69
402,303	6,67
402,663	6,69
403,023	6,68
403,383	6,69
403,743	6,68
404,103	6,66
404,463	6,63
404,823	6,65
405,183	6,66
405,543	6,65
405,903	6,68
406,262	6,63
406,622	6,57
406,982	6,59
407,342	6,59
407,701	6,61
408,061	6,65
408,42	6,64
408,78	6,63
409,139	6,65
409,499	6,65
409,858	6,63
410,217	6,61
410,577	6,64
410,936	6,62
411,295	6,61
411,655	6,58
412,014	6,57
412,373	6,51
412,732	6,43
413,091	6,4
413,45	6,35
413,809	6,34
414,168	6,3
414,527	6,24
414,886	6,19
415,245	6,13
415,603	6,08
415,962	6,04
416,321	6,01
416,679	5,95
417,038	5,9
417,397	5,88
417,755	5,82
418,114	5,79
418,472	5,77
418,831	5,75
419,189	5,74
419,547	5,73
419,906	5,72
420,264	5,71
420,622	5,69
420,981	5,66
421,339	5,64
421,697	5,64
422,055	5,66
422,413	5,67
422,771	5,68
423,129	5,69
423,487	5,71
423,845	5,74
424,203	5,78
424,56	5,8
424,918	5,82
425,276	5,86
425,634	5,89
425,991	5,92
426,349	5,94
426,707	5,98
427,064	6,01
427,422	6,04
427,779	6,09
428,137	6,13
428,494	6,18
428,851	6,23
429,209	6,24
429,566	6,22
429,923	6,22
430,28	6,23
430,637	6,24
430,995	6,25
431,352	6,24
431,709	6,24
432,066	6,26
432,423	6,27
432,78	6,28
433,137	6,28
433,493	6,27
433,85	6,26
434,207	6,22
434,564	6,22
434,92	6,22
435,277	6,2
435,634	6,19
435,99	6,16
436,347	6,13
436,703	6,13
437,06	6,12
437,416	6,12
437,773	6,13
438,129	6,11
438,485	6,12
438,841	6,12
439,198	6,13
439,554	6,13
439,91	6,12
440,266	6,11
440,622	6,1
440,978	6,11
441,334	6,1
441,69	6,1
442,046	6,08
442,402	6,07
442,758	6,07
443,113	6,05
443,469	6,05
443,825	6,05
444,181	6,07
444,536	6,08
444,892	6,07
445,247	6,07
445,603	6,07
445,958	6,06
446,314	6,06
446,669	6,06
447,025	6,06
447,38	6,06
447,735	6,07
448,09	6,08
448,446	6,09
448,801	6,1
449,156	6,12
449,511	6,15
449,866	6,18
450,221	6,21
450,576	6,26
450,931	6,31
451,286	6,35
451,641	6,35
451,995	6,37
452,35	6,4
452,705	6,42
453,06	6,43
453,414	6,44
453,769	6,43
454,123	6,44
454,478	6,45
454,832	6,45
455,187	6,43
455,541	6,42
455,896	6,4
456,25	6,37
456,604	6,36
456,958	6,34
457,313	6,31
457,667	6,28
458,021	6,27
458,375	6,27
458,729	6,29
459,083	6,32
459,437	6,34
459,791	6,34
460,145	6,35
460,499	6,35
460,852	6,36
461,206	6,37
461,56	6,35
461,914	6,34
462,267	6,34
462,621	6,34
462,974	6,36
463,328	6,39
463,681	6,42
464,035	6,44
464,388	6,45
464,742	6,47
465,095	6,49
465,448	6,52
465,801	6,52
466,155	6,52
466,508	6,51
466,861	6,51
467,214	6,51
467,567	6,51
467,92	6,51
468,273	6,51
468,626	6,51
468,979	6,53
469,332	6,54
469,684	6,55
470,037	6,57
470,39	6,56
470,743	6,58
471,095	6,58
471,448	6,59
471,8	6,6
472,153	6,62
472,505	6,65
472,858	6,64
473,21	6,65
473,562	6,65
473,915	6,63
474,267	6,64
474,619	6,65
474,971	6,65
475,324	6,65
475,676	6,66
476,028	6,65
476,38	6,64
476,732	6,66
477,084	6,68
477,436	6,68
477,787	6,68
478,139	6,67
478,491	6,67
478,843	6,65
479,195	6,65
479,546	6,61
479,898	6,55
480,249	6,48
480,601	6,42
480,952	6,37
481,304	6,35
481,655	6,33
482,007	6,33
482,358	6,33
482,709	6,32
483,061	6,31
483,412	6,3
483,763	6,28
484,114	6,27
484,465	6,25
484,816	6,24
485,167	6,23
485,518	6,22
485,869	6,21
486,22	6,22
486,571	6,22
486,922	6,22
487,272	6,23
487,623	6,25
487,974	6,27
488,324	6,29
488,675	6,3
489,025	6,31
489,376	6,3
489,726	6,3
490,077	6,31
490,427	6,32
490,778	6,34
491,128	6,37
491,478	6,39
491,828	6,43
492,179	6,47
492,529	6,49
492,879	6,5
493,229	6,52
493,579	6,53
493,929	6,53
494,279	6,55
494,629	6,56
494,979	6,58
495,328	6,6
495,678	6,64
496,028	6,67
496,378	6,69
496,727	6,72
497,077	6,74
497,426	6,77
497,776	6,78
498,125	6,78
498,475	6,78
498,824	6,77
499,174	6,76
499,523	6,75
499,872	6,75
500,221	6,78
500,571	6,79
500,92	6,79
501,269	6,81
501,618	6,8
501,967	6,8
502,316	6,8
502,665	6,82
503,014	6,83
503,363	6,86
503,711	6,86
504,06	6,86
504,409	6,87
504,758	6,83
505,106	6,83
505,455	6,83
505,803	6,83
506,152	6,83
506,5	6,82
506,849	6,83
507,197	6,82
507,546	6,82
507,894	6,82
508,242	6,82
508,59	6,82
508,939	6,82
509,287	6,83
509,635	6,82
509,983	6,83
510,331	6,83
510,679	6,84
511,027	6,85
511,375	6,86
511,723	6,88
512,07	6,9
512,418	6,93
512,766	6,94
513,114	6,96
513,461	6,98
513,809	7
514,156	7
514,504	7,01
514,851	6,99
515,199	6,99
515,546	6,99
515,893	6,98
516,241	6,99
516,588	7,01
516,935	7,03
517,282	7,03
517,63	7,04
517,977	7,03
518,324	7,04
518,671	7,04
519,018	7,05
519,365	7,04
519,711	7,04
520,058	7,05
520,405	7,04
520,752	7,03
521,099	7,03
521,445	7,06
521,792	7,06
522,138	7,07
522,485	7,06
522,832	7,07
523,178	7,07
523,524	7,05
523,871	7,04
524,217	7,01
524,563	7,01
524,91	6,96
525,256	6,92
525,602	6,88
525,948	6,86
526,294	6,85
526,64	6,84
526,986	6,83
527,332	6,81
527,678	6,8
528,024	6,79
528,37	6,8
528,716	6,78
529,061	6,79
529,407	6,8
529,753	6,8
530,098	6,8
530,444	6,81
530,789	6,81
531,135	6,82
531,48	6,83
531,826	6,83
532,171	6,85
532,516	6,89
532,862	6,92
533,207	6,94
533,552	6,94
533,897	6,95
534,242	6,98
534,587	7
534,932	7,03
535,277	7,04
535,622	7,03
535,967	7,05
536,312	7,07
536,657	7,08
537,001	7,1
537,346	7,11
537,691	7,11
538,035	7,11
538,38	7,1
538,724	7,09
539,069	7,08
539,413	7,07
539,758	7,04
540,102	7,04
540,446	7,05
540,791	7,05
541,135	7,07
541,479	7,06
541,823	7,06
542,167	7,04
542,512	7,06
542,856	7,05
543,2	7,05
543,543	7,03
543,887	7,03
544,231	7,03
544,575	7,04
544,919	7,05
545,262	7,07
545,606	7,08
545,95	7,11
546,293	7,14
546,637	7,16
546,98	7,2
547,324	7,2
547,667	7,22
548,011	7,24
548,354	7,24
548,697	7,23
549,04	7,24
549,384	7,24
549,727	7,21
550,07	7,22
550,413	7,22
550,756	7,22
551,099	7,21
551,442	7,19
551,785	7,2
552,128	7,19
552,47	7,18
552,813	7,19
553,156	7,17
553,499	7,15
553,841	7,15
554,184	7,12
554,526	7,11
554,869	7,09
555,211	7,06
555,554	7,05
555,896	7,06
556,238	7,04
556,581	7,05
556,923	7,05
557,265	7,07
557,607	7,06
557,949	7,07
558,291	7,06
558,633	7,07
558,975	7,04
559,317	7,04
559,659	7,04
560,001	6,99
560,343	6,98
560,685	6,95
561,026	6,92
561,368	6,91
561,71	6,89
562,051	6,88
562,393	6,88
562,734	6,86
563,076	6,82
563,417	6,8
563,759	6,79
564,1	6,77
564,441	6,72
564,782	6,72
565,124	6,68
565,465	6,66
565,806	6,63
566,147	6,62
566,488	6,6
566,829	6,58
567,17	6,57
567,511	6,55
567,851	6,54
568,192	6,54
568,533	6,53
568,874	6,52
569,214	6,49
569,555	6,48
569,895	6,48
570,236	6,48
570,576	6,47
570,917	6,46
571,257	6,45
571,598	6,46
571,938	6,43
572,278	6,43
572,618	6,43
572,959	6,42
573,299	6,4
573,639	6,38
573,979	6,39
574,319	6,4
574,659	6,39
574,999	6,37
575,339	6,36
575,678	6,36
576,018	6,32
576,358	6,31
576,698	6,3
577,037	6,26
577,377	6,25
577,716	6,25
578,056	6,22
578,395	6,23
578,735	6,23
579,074	6,23
579,413	6,21
579,753	6,19
580,092	6,17
580,431	6,18
580,77	6,18
581,109	6,17
581,448	6,18
581,787	6,18
582,126	6,17
582,465	6,14
582,804	6,16
583,143	6,19
583,482	6,2
583,82	6,2
584,159	6,22
584,498	6,23
584,836	6,23
585,175	6,23
585,514	6,22
585,852	6,22
586,19	6,25
586,529	6,23
586,867	6,24
587,205	6,27
587,544	6,3
587,882	6,29
588,22	6,28
588,558	6,27
588,896	6,29
589,234	6,32
589,572	6,35
589,91	6,34
590,248	6,35
590,586	6,34
590,924	6,35
591,262	6,35
591,599	6,37
591,937	6,37
592,275	6,37
592,612	6,38
592,95	6,37
593,287	6,38
593,625	6,41
593,962	6,43
594,299	6,44
594,637	6,44
594,974	6,46
595,311	6,5
595,648	6,52
595,985	6,51
596,322	6,53
596,659	6,52
596,996	6,52
597,333	6,51
597,67	6,52
598,007	6,52
598,344	6,54
598,681	6,53
599,017	6,52
599,354	6,54
599,691	6,54
600,027	6,57
600,364	6,55
600,7	6,57
601,037	6,59
601,373	6,62
601,71	6,64
602,046	6,67
602,382	6,67
602,718	6,66
603,054	6,67
603,391	6,67
603,727	6,68
604,063	6,7
604,399	6,7
604,735	6,7
605,071	6,7
605,406	6,69
605,742	6,69
606,078	6,73
606,414	6,73
606,749	6,73
607,085	6,74
607,421	6,75
607,756	6,74
608,092	6,71
608,427	6,68
608,762	6,67
609,098	6,65
609,433	6,62
609,768	6,62
610,104	6,6
610,439	6,59
610,774	6,57
611,109	6,55
611,444	6,55
611,779	6,55
612,114	6,56
612,449	6,57
612,784	6,58
613,118	6,53
613,453	6,49
613,788	6,45
614,123	6,41
614,457	6,38
614,792	6,35
615,126	6,31
615,461	6,27
615,795	6,25
616,13	6,25
616,464	6,24
616,798	6,25
617,132	6,28
617,467	6,3
617,801	6,3
618,135	6,32
618,469	6,34
618,803	6,33
619,137	6,32
619,471	6,33
619,805	6,33
620,139	6,31
620,472	6,35
620,806	6,38
621,14	6,39
621,473	6,38
621,807	6,38
622,141	6,4
622,474	6,43
622,808	6,46
623,141	6,47
623,474	6,49
623,808	6,49
624,141	6,5
624,474	6,49
624,807	6,48
625,141	6,48
625,474	6,5
625,807	6,54
626,14	6,56
626,473	6,56
626,806	6,58
627,138	6,61
627,471	6,63
627,804	6,62
628,137	6,62
628,469	6,65
628,802	6,7
629,135	6,75
629,467	6,78
629,8	6,79
630,132	6,76
630,465	6,75
630,797	6,77
631,129	6,77
631,461	6,77
631,794	6,82
632,126	6,82
632,458	6,79
632,79	6,78
633,122	6,78
633,454	6,8
633,786	6,75
634,118	6,74
634,45	6,74
634,781	6,76
635,113	6,75
635,445	6,76
635,777	6,73
636,108	6,7
636,44	6,66
636,771	6,66
637,103	6,69
637,434	6,68
637,765	6,67
638,097	6,66
638,428	6,65
638,759	6,58
639,09	6,57
639,422	6,56
639,753	6,55
640,084	6,51
640,415	6,51
640,746	6,56
641,077	6,57
641,407	6,58
641,738	6,57
642,069	6,58
642,4	6,56
642,73	6,57
643,061	6,58
643,392	6,61
643,722	6,58
644,053	6,55
644,383	6,57
644,713	6,62
645,044	6,62
645,374	6,62
645,704	6,67
646,034	6,66
646,365	6,67
646,695	6,67
647,025	6,7
647,355	6,68
647,685	6,67
648,015	6,66
648,344	6,66
648,674	6,69
649,004	6,72
649,334	6,77
649,663	6,82
649,993	6,86
650,323	6,85
650,652	6,86
650,982	6,85
651,311	6,8
651,64	6,75
651,97	6,73
652,299	6,72
652,628	6,7
652,958	6,73
653,287	6,78
653,616	6,77
653,945	6,75
654,274	6,76
654,603	6,78
654,932	6,83
655,261	6,84
655,589	6,88
655,918	6,88
656,247	6,9
656,576	6,9
656,904	6,92
657,233	6,98
657,561	6,97
657,89	6,98
658,218	7,03
658,547	7,08
658,875	7,13
659,203	7,18
659,532	7,17
659,86	7,19
660,188	7,18
660,516	7,22
660,844	7,23
661,172	7,26
661,5	7,28
661,828	7,27
662,156	7,24
662,484	7,19
662,811	7,18
663,139	7,11
663,467	7,07
663,794	7,06
664,122	7,01
664,45	7,04
664,777	7,1
665,104	7,14
665,432	7,1
665,759	7,11
666,086	7,15
666,414	7,27
666,741	7,26
667,068	7,29
667,395	7,27
667,722	7,31
668,049	7,31
668,376	7,26
668,703	7,25
669,03	7,29
669,357	7,32
669,683	7,33
670,01	7,38
670,337	7,36
670,663	7,32
670,99	7,32
671,317	7,3
671,643	7,26
671,969	7,19
672,296	7,22
672,622	7,21
672,948	7,17
673,275	7,07
673,601	7,07
673,927	7,05
674,253	7,07
674,579	7,03
674,905	6,99
675,231	7,06
675,557	7,09
675,883	7,11
676,209	7,1
676,534	7,11
676,86	7,11
677,186	7,16
677,511	7,25
677,837	7,3
678,162	7,35
678,488	7,34
678,813	7,38
679,139	7,37
679,464	7,4
679,789	7,43
680,114	7,48
680,44	7,51
680,765	7,55
681,09	7,52
681,415	7,54
681,74	7,55
682,065	7,51
682,39	7,49
682,714	7,48
683,039	7,48
683,364	7,51
683,689	7,58
684,013	7,62
684,338	7,56
684,662	7,52
684,987	7,58
685,311	7,62
685,636	7,62
685,96	7,63
686,284	7,63
686,608	7,6
686,933	7,57
687,257	7,54
687,581	7,48
687,905	7,55
688,229	7,58
688,553	7,55
688,877	7,57
689,201	7,61
689,524	7,68
689,848	7,75
690,172	7,74
690,496	7,69
690,819	7,67
691,143	7,7
691,466	7,72
691,79	7,68
692,113	7,71
692,436	7,71
692,76	7,75
693,083	7,76
693,406	7,77
693,729	7,8
694,053	7,81
694,376	7,89
694,699	7,88
695,022	7,93
695,344	8,03
695,667	8,12
695,99	8,22
696,313	8,16
696,636	8,13
696,958	8,11
697,281	8,13
697,604	8,19
697,926	8,21
698,249	8,18
698,571	8,14
698,893	8,09
699,216	8,1
699,538	8,05
699,86	8,06
700,182	8,13
700,504	8,15
700,827	8,1
701,149	8,04
701,471	8,11
701,793	8,14
702,114	8,17
702,436	8,13
702,758	8
703,08	8,01
703,401	7,93
703,723	7,94
704,045	7,94
704,366	7,83
704,688	7,78
705,009	7,8
705,331	7,78
705,652	7,75
705,973	7,74
706,294	7,78
706,616	7,82
706,937	7,76
707,258	7,69
707,579	7,8
707,9	7,79
708,221	7,68
708,542	7,57
708,863	7,53
709,183	7,57
709,504	7,56
709,825	7,55
710,145	7,65
710,466	7,69
710,787	7,71
711,107	7,79
711,427	7,86
711,748	7,95
712,068	8,04
712,388	8,09
712,709	8,13
713,029	8,14
713,349	8,1
713,669	8,13
713,989	8,21
714,309	8,25
714,629	8,29
714,949	8,31
715,269	8,32
715,589	8,34
715,908	8,34
716,228	8,4
716,548	8,49
716,867	8,49
717,187	8,54
717,506	8,57
717,826	8,6
718,145	8,63
718,465	8,63
718,784	8,71
719,103	8,83
719,422	8,92
719,741	9,01
720,061	9,06
720,38	9,09
720,699	9,17
721,018	9,22
721,336	9,46
721,655	9,61
721,974	9,78
722,293	9,87
722,612	9,95
722,93	10,05
723,249	10,06
723,567	10,18
723,886	10,25
724,204	10,4
724,523	10,49
724,841	10,61
725,159	10,78
725,477	10,91
725,796	11,05
726,114	11,11
726,432	11,2
726,75	11,42
727,068	11,55
727,386	11,61
727,704	11,68
728,022	11,67
728,339	11,77
728,657	11,86
728,975	11,97
729,292	12,14
729,61	12,22
729,928	12,35
730,245	12,39
730,562	12,46
730,88	12,49
731,197	12,57
731,514	12,69
731,832	12,75
732,149	12,77
732,466	12,81
732,783	12,96
733,1	13,03
733,417	13,04
733,734	13,16
734,051	13,28
734,368	13,39
734,684	13,48
735,001	13,53
735,318	13,63
735,634	13,74
735,951	13,82
736,268	13,9
736,584	13,98
736,9	14,16
737,217	14,33
737,533	14,43
737,849	14,56
738,166	14,58
738,482	14,61
738,798	14,7
739,114	14,81
739,43	14,78
739,746	14,9
740,062	15,04
740,378	15,09
740,693	15,23
741,009	15,2
741,325	15,15
741,641	15,13
741,956	15,13
742,272	15,16
742,587	15,13
742,903	15,3
743,218	15,43
743,533	15,44
743,849	15,46
744,164	15,61
744,479	15,66
744,794	15,74
745,109	15,93
745,424	15,99
745,739	16,02
746,054	16,1
746,369	16,11
746,684	16,18
746,999	16,23
747,313	16,18
747,628	16,4
747,943	16,55
748,257	16,75
748,572	16,92
748,886	16,9
749,201	16,99
749,515	16,98
749,829	17,04
750,144	17,09
750,458	17,12
750,772	17,02
751,086	16,96
751,4	16,95
751,714	16,9
752,028	17,01
752,342	17,09
752,656	17,2
752,97	17,31
753,284	17,4
753,597	17,44
753,911	17,53
754,225	17,64
754,538	17,73
754,852	17,77
755,165	17,69
755,478	17,84
755,792	18,04
756,105	18,19
756,418	18,22
756,731	18,25
757,045	18,34
757,358	18,43
757,671	18,56
757,984	18,6
758,297	18,64
758,609	18,69
758,922	18,73
759,235	18,69
759,548	18,64
759,86	18,52
760,173	18,37
760,486	18,16
760,798	17,87
761,111	17,66
761,423	17,56
761,735	17,55
762,048	17,55
762,36	17,45
762,672	17,35
762,984	17,35
763,296	17,4
763,608	17,46
763,92	17,55
764,232	17,56
764,544	17,76
764,856	17,9
765,168	18,01
765,48	18,2
765,791	18,36
766,103	18,55
766,414	18,78
766,726	19
767,037	19,35
767,349	19,81
767,66	20,28
767,972	20,79
768,283	21,26
768,594	21,54
768,905	21,84
769,216	22,11
769,527	22,43
769,838	22,75
770,149	22,88
770,46	23,03
770,771	23,35
771,082	23,56
771,393	23,62
771,703	23,83
772,014	23,91
772,324	23,93
772,635	23,89
772,945	23,9
773,256	24,23
773,566	24,32
773,877	24,43
774,187	24,48
774,497	24,54
774,807	24,78
775,117	24,96
775,427	24,96
775,737	25,01
776,047	24,9
776,357	24,97
776,667	25,24
776,977	25,62
777,287	25,78
777,596	25,68
777,906	25,81
778,216	25,73
778,525	25,54
778,835	25,58
779,144	25,75
779,453	25,87
779,763	26,02
780,072	26,09
780,381	26,1
780,69	26,5
781	26,49
781,309	26,36
781,618	26,47
781,927	26,56
782,235	27,02
782,544	27,46
782,853	27,75
783,162	27,85
783,471	27,87
783,779	27,8
784,088	27,93
784,396	27,93
784,705	28,08
785,013	28,38
785,322	28,5
785,63	28,58
785,938	28,41
786,246	28,17
786,554	28,09
786,863	27,79
787,171	27,43
787,479	27,47
787,787	27,44
788,094	27,38
788,402	27,6
788,71	27,3
789,018	26,93
789,326	26,81
789,633	26,68
789,941	26,58
790,248	26,68
790,556	26,78
790,863	26,95
791,171	26,78
791,478	26,63
791,785	26,74
792,092	26,75
792,399	26,82
792,707	26,97
793,014	27
793,321	27,48
793,628	27,71
793,934	27,77
794,241	27,81
794,548	27,9
794,855	27,71
795,161	27,96
795,468	28,19
795,775	28,12
796,081	28,2
796,388	28,37
796,694	28,31
797	28,22
797,307	28,32
797,613	28,62
797,919	28,93
798,225	29,04
798,531	29,36
798,837	29,83
799,143	30,28
799,449	30,76
799,755	30,77
800,061	30,74
800,367	30,76
800,672	30,83
800,978	30,96
801,284	31,19
801,589	31,43
801,895	31,62
802,2	31,97
802,506	32,08
802,811	31,98
803,116	31,92
803,421	31,99
803,727	32,07
804,032	32,23
804,337	32,63
804,642	32,67
804,947	32,67
805,252	32,64
805,556	32,25
805,861	32,05
806,166	32,21
806,471	32,32
806,775	32,67
807,08	33,1
807,384	33,32
807,689	33,51
807,993	33,3
808,298	33,35
808,602	33,08
808,906	33,24
809,211	33,61
809,515	34,07
809,819	34,4
810,123	34,35
810,427	34,51
810,731	34,25
811,035	34,34
811,338	34,6
811,642	34,77
811,946	34,96
812,25	35,12
812,553	35,25
812,857	35,59
813,16	35,56
813,464	35,33
813,767	35,44
814,07	35,55
814,374	35,82
814,677	35,94
814,98	36,33
815,283	36,43
815,586	36,59
815,889	36,27
816,192	35,98
816,495	35,86
816,798	35,59
817,101	35,27
817,404	35,06
817,706	34,46
818,009	33,4
818,312	32,63
818,614	31,49
818,917	29,92
819,219	27,62
819,521	25,48
819,824	23,68
820,126	22,22
820,428	21,06
820,73	20,27
821,032	19,85
821,334	19,47
821,636	19,23
821,938	19,08
822,24	18,93
822,542	18,81
822,844	18,71
823,145	18,59
823,447	18,44
823,749	18,35
824,05	18,3
824,352	18,27
824,653	18,25
824,955	18,27
825,256	18,3
825,557	18,52
825,858	18,8
826,16	19,19
826,461	19,54
826,762	19,97
827,063	20,54
827,364	20,95
827,665	21,43
827,965	21,86
828,266	22,2
828,567	22,71
828,868	23,1
829,168	23,46
829,469	23,72
829,769	24,17
830,07	24,59
830,37	25,15
830,67	25,56
830,971	25,91
831,271	26,26
831,571	26,85
831,871	27,21
832,171	27,52
832,471	27,66
832,771	28,09
833,071	28,34
833,371	28,45
833,671	28,67
833,971	28,81
834,27	28,67
834,57	28,4
834,869	28,42
835,169	28,71
835,468	28,97
835,768	29,2
836,067	29,29
836,367	29,36
836,666	29,37
836,965	29,96
837,264	30,45
837,563	31,11
837,862	31,65
838,161	32,26
838,46	33,27
838,759	34,09
839,058	34,43
839,356	35,22
839,655	35,7
839,954	35,93
840,252	36,63
840,551	37,69
840,849	38,71
841,148	39,19
841,446	39,74
841,744	40,08
842,043	40,63
842,341	41,1
842,639	41,32
842,937	41,84
843,235	42,13
843,533	42,9
843,831	43,39
844,129	44,1
844,427	45,34
844,724	45,59
845,022	46,16
845,32	47,42
845,617	48,63
845,915	49,98
846,212	50,82
846,51	51,58
846,807	52,55
847,104	52,82
847,402	53,22
847,699	52,8
847,996	52,93
848,293	53,72
848,59	54,07
848,887	54,62
849,184	54,17
849,481	53,96
849,778	54,03
850,074	54,96
850,371	54,93
850,668	54,65
850,964	55,49
851,261	56,74
851,557	58,51
851,854	59,01
852,15	59,17
852,446	59,67
852,743	58,91
853,039	57,82
853,335	57,88
853,631	57,17
853,927	57,48
854,223	57,19
854,519	55,86
854,815	54,56
855,111	54,56
855,406	54,59
855,702	54,61
855,998	55,29
856,293	55,9
856,589	57,84
856,884	58,47
857,18	58,32
857,475	57,84
857,77	56,19
858,066	55,95
858,361	55,9
858,656	55,8
858,951	56,73
859,246	57,6
859,541	57,68
859,836	58,3
860,131	57,68
860,426	57,98
860,72	58,51
861,015	59,41
861,31	58,6
861,604	58,28
861,899	58,4
862,193	58,46
862,487	58,1
862,782	57,07
863,076	56,9
863,37	56,93
863,664	56,8
863,959	56,8
864,253	55,99
864,547	55,54
864,841	56,05
865,135	55,46
865,428	54,39
865,722	54,75
866,016	55,2
866,31	56,11
866,603	56,6
866,897	57,58
867,19	58,45
867,484	59,12
867,777	58,88
868,07	59,41
868,364	59,45
868,657	59,64
868,95	59,93
869,243	59,73
869,536	60,19
869,829	60,35
870,122	61,06
870,415	61,82
870,708	61,71
871	62,28
871,293	62,91
871,586	64,38
871,878	64,73
872,171	65,38
872,463	64,63
872,756	64
873,048	62,32
873,341	61,71
873,633	61,81
873,925	63,32
874,217	63,44
874,509	63,1
874,801	62,6
875,093	61,91
875,385	62
875,677	60,86
875,969	61,78
