Data from zc_m4_p1_Reflection_3,txt Node
Date: Wed Nov 25 16:59:38 GMT-03:00 2020
User: Darío
Spectrometer: USB2E3644
Trigger mode: 4
Integration Time (sec): 9,000000E-2
Scans to average: 10
Electric dark correction enabled: true
Nonlinearity correction enabled: false
Boxcar width: 10
XAxis mode: Wavelengths
Number of Pixels in Spectrum: 2048
>>>>>Begin Spectral Data<<<<<
178,315	54,13
178,696	84,27
179,076	153,17
179,457	182,07
179,838	103,36
180,218	94,94
180,599	95,21
180,979	22,58
181,36	-60
181,74	182,61
182,121	130,53
182,501	129,87
182,881	126,86
183,262	117,39
183,642	117,64
184,022	115,86
184,402	110,04
184,783	106,41
185,163	102,83
185,543	101,55
185,923	103,83
186,303	108,45
186,683	112,77
187,063	116,88
187,443	118,32
187,823	115,34
188,203	114,42
188,583	113,01
188,963	113,22
189,343	113,43
189,723	113,01
190,102	113,13
190,482	112,85
190,862	113,33
191,242	115,34
191,621	115,95
192,001	117,44
192,38	118,94
192,76	121,41
193,14	122,16
193,519	125,14
193,898	126,92
194,278	126,78
194,657	125,83
195,037	125,98
195,416	124,46
195,795	121,87
196,175	122,62
196,554	126,53
196,933	126,99
197,312	127
197,692	128,88
198,071	128,26
198,45	126,26
198,829	126,96
199,208	125,34
199,587	123,73
199,966	121,53
200,345	121,06
200,724	122,46
201,103	122,68
201,482	121,88
201,86	123,56
202,239	125,25
202,618	125,69
202,997	124,88
203,375	126,47
203,754	130,93
204,133	132,44
204,511	130,73
204,89	129,19
205,269	129,74
205,647	129,8
206,026	132,16
206,404	134,35
206,782	131,16
207,161	130,37
207,539	131,33
207,918	133,83
208,296	135,21
208,674	133,25
209,052	130,66
209,431	129,86
209,809	126,42
210,187	124,93
210,565	125,51
210,943	127,02
211,321	125,84
211,699	125,32
212,077	124,66
212,455	122,44
212,833	123,78
213,211	125,07
213,589	123,66
213,967	123,22
214,345	121,15
214,722	121,37
215,1	119,82
215,478	119,37
215,855	120,05
216,233	120,77
216,611	121,86
216,988	124,77
217,366	125,04
217,743	124,99
218,121	124,31
218,498	126,34
218,876	128,41
219,253	132,58
219,631	135,15
220,008	137,52
220,385	145,01
220,762	146,72
221,14	141,88
221,517	139,39
221,894	138,91
222,271	143,1
222,648	148,48
223,025	153,93
223,402	159,13
223,78	159,54
224,157	159,19
224,533	162,93
224,91	167,15
225,287	169,38
225,664	168,44
226,041	165,49
226,418	162,62
226,795	161,3
227,171	157,32
227,548	151,31
227,925	148,71
228,301	144,77
228,678	146,28
229,055	151,46
229,431	154,95
229,808	157,18
230,184	158,81
230,561	162,48
230,937	162,34
231,313	159,17
231,69	159,69
232,066	161,37
232,442	164,35
232,819	163,42
233,195	163,75
233,571	169,23
233,947	175,72
234,323	174,16
234,699	179,41
235,075	187,93
235,451	201,2
235,827	210,87
236,203	219,37
236,579	223,62
236,955	237,93
237,331	259,92
237,707	289,54
238,083	338,62
238,459	406,09
238,834	593,83
239,21	1049,06
239,586	4462,83
239,961	-2969,82
240,337	-1880,38
240,713	-833,45
241,088	-605,81
241,464	-546,57
241,839	-472,99
242,215	-332,01
242,59	-255,39
242,965	-178,67
243,341	-126,31
243,716	-95,42
244,091	-78,42
244,467	-67,13
244,842	-59
245,217	-55,27
245,592	-52,17
245,967	-53,19
246,343	-53,5
246,718	-55,05
247,093	-55,71
247,468	-55,67
247,843	-55,58
248,218	-53,55
248,593	-52,57
248,967	-50,16
249,342	-47,77
249,717	-47,16
250,092	-47,69
250,467	-47,55
250,841	-49,99
251,216	-55,82
251,591	-62,47
251,965	-70,26
252,34	-76,77
252,714	-80,91
253,089	-82,16
253,463	-82,04
253,838	-76,72
254,212	-72,45
254,587	-68,63
254,961	-65,23
255,335	-60,48
255,71	-51,26
256,084	-41,54
256,458	-34,62
256,832	-29,33
257,206	-26,71
257,581	-24,68
257,955	-23,69
258,329	-23,37
258,703	-22,65
259,077	-22,18
259,451	-22,31
259,825	-21,84
260,199	-21,49
260,572	-21,95
260,946	-22,51
261,32	-22,67
261,694	-22,35
262,068	-21,92
262,441	-21,31
262,815	-20,26
263,189	-20,06
263,562	-20,26
263,936	-21,08
264,309	-21,84
264,683	-23,47
265,056	-24,2
265,43	-23,97
265,803	-23,29
266,176	-22,09
266,55	-20,83
266,923	-19,5
267,296	-18,17
267,67	-17,61
268,043	-17,22
268,416	-16,36
268,789	-14,69
269,162	-13,91
269,535	-13,22
269,908	-12,59
270,281	-12,32
270,654	-12,38
271,027	-12,55
271,4	-13,24
271,773	-13,75
272,146	-14,34
272,519	-14,85
272,891	-14,99
273,264	-15,46
273,637	-15,71
274,01	-16,35
274,382	-16,97
274,755	-17,2
275,127	-18,04
275,5	-18,05
275,872	-17,61
276,245	-17,43
276,617	-18,03
276,99	-18,63
277,362	-19,5
277,734	-19,9
278,107	-19,98
278,479	-18,91
278,851	-18,06
279,223	-17,11
279,596	-16,42
279,968	-15,62
280,34	-14,96
280,712	-14,81
281,084	-14,59
281,456	-14,19
281,828	-13,52
282,2	-13,05
282,572	-12,58
282,944	-11,57
283,315	-11,06
283,687	-10,71
284,059	-10,36
284,431	-9,88
284,802	-9,53
285,174	-9,2
285,546	-9,06
285,917	-9,18
286,289	-9,63
286,66	-9,66
287,032	-9,62
287,403	-9,64
287,775	-9,6
288,146	-9,57
288,518	-9,46
288,889	-9,37
289,26	-9,16
289,632	-9,25
290,003	-9,54
290,374	-10,06
290,745	-10,54
291,116	-10,71
291,487	-10,95
291,858	-11,19
292,229	-11,43
292,6	-10,97
292,971	-10,69
293,342	-10,26
293,713	-9,56
294,084	-9,11
294,455	-8,84
294,826	-8,95
295,196	-8,76
295,567	-8,7
295,938	-8,66
296,308	-8,61
296,679	-8,48
297,05	-8,33
297,42	-8,11
297,791	-7,65
298,161	-7,05
298,532	-6,81
298,902	-6,89
299,272	-6,74
299,643	-6,37
300,013	-6,21
300,383	-6,28
300,754	-6,22
301,124	-6,5
301,494	-6,88
301,864	-6,96
302,234	-7,18
302,604	-6,91
302,974	-6,88
303,344	-6,91
303,714	-6,67
304,084	-6,54
304,454	-6,18
304,824	-6,01
305,194	-6,19
305,563	-6,17
305,933	-6,1
306,303	-5,73
306,673	-5,07
307,042	-4,71
307,412	-4,58
307,781	-4,17
308,151	-3,97
308,521	-3,69
308,89	-3,41
309,259	-3
309,629	-2,72
309,998	-2,48
310,368	-2,38
310,737	-2,12
311,106	-2,07
311,475	-2,1
311,845	-1,98
312,214	-1,95
312,583	-1,98
312,952	-1,78
313,321	-1,81
313,69	-1,72
314,059	-1,63
314,428	-1,61
314,797	-1,52
315,166	-1,61
315,535	-1,7
315,904	-1,68
316,272	-1,78
316,641	-1,51
317,01	-1,43
317,379	-1,43
317,747	-1,42
318,116	-1,41
318,484	-1,71
318,853	-1,62
319,221	-1,56
319,59	-1,43
319,958	-1,34
320,327	-1,19
320,695	-1,14
321,063	-0,96
321,432	-0,91
321,8	-0,98
322,168	-1,14
322,536	-1,2
322,905	-1,1
323,273	-1,05
323,641	-0,99
324,009	-0,9
324,377	-0,95
324,745	-1,03
325,113	-1,03
325,481	-0,93
325,849	-1,1
326,216	-0,98
326,584	-0,92
326,952	-0,82
327,32	-0,85
327,687	-0,81
328,055	-0,84
328,423	-0,68
328,79	-0,59
329,158	-0,64
329,525	-0,63
329,893	-0,55
330,26	-0,47
330,628	-0,31
330,995	-0,21
331,362	-0,08
331,73	0,02
332,097	0,06
332,464	0,15
332,831	0,17
333,199	0,36
333,566	0,75
333,933	0,91
334,3	0,96
334,667	1,01
335,034	0,99
335,401	1
335,768	1,07
336,135	1,08
336,502	1,05
336,868	1,18
337,235	1,26
337,602	1,36
337,969	1,35
338,335	1,35
338,702	1,28
339,069	1,2
339,435	1,23
339,802	1,25
340,168	1,27
340,535	1,25
340,901	1,19
341,267	1,06
341,634	1,05
342	1,12
342,366	1,23
342,733	1,32
343,099	1,46
343,465	1,54
343,831	1,64
344,197	1,8
344,563	1,84
344,929	1,85
345,295	1,83
345,661	1,86
346,027	1,88
346,393	2,05
346,759	2,16
347,125	2,17
347,491	2,29
347,856	2,44
348,222	2,66
348,588	2,68
348,953	2,76
349,319	2,94
349,684	2,94
350,05	2,9
350,415	2,98
350,781	3,03
351,146	3,07
351,512	2,98
351,877	2,98
352,242	3,04
352,608	3,13
352,973	3,3
353,338	3,41
353,703	3,39
354,068	3,37
354,433	3,39
354,798	3,47
355,164	3,42
355,528	3,34
355,893	3,28
356,258	3,33
356,623	3,35
356,988	3,27
357,353	3,29
357,718	3,29
358,082	3,33
358,447	3,29
358,812	3,33
359,176	3,55
359,541	3,62
359,905	3,63
360,27	3,6
360,634	3,57
360,999	3,58
361,363	3,71
361,728	3,79
362,092	3,9
362,456	3,97
362,821	4,07
363,185	4,23
363,549	4,3
363,913	4,36
364,277	4,42
364,641	4,49
365,005	4,56
365,369	4,63
365,733	4,68
366,097	4,77
366,461	4,78
366,825	4,73
367,189	4,74
367,553	4,86
367,916	4,96
368,28	5
368,644	5,08
369,007	5,14
369,371	5,12
369,734	5,16
370,098	5,26
370,461	5,35
370,825	5,34
371,188	5,35
371,552	5,45
371,915	5,56
372,278	5,65
372,642	5,74
373,005	5,78
373,368	5,83
373,731	5,92
374,094	6,04
374,457	6,12
374,82	6,15
375,183	6,21
375,546	6,35
375,909	6,43
376,272	6,51
376,635	6,6
376,998	6,73
377,361	6,79
377,723	6,82
378,086	6,83
378,449	6,91
378,811	7,03
379,174	7,06
379,537	7,09
379,899	7,12
380,262	7,13
380,624	7,21
380,987	7,23
381,349	7,25
381,711	7,24
382,074	7,28
382,436	7,36
382,798	7,44
383,16	7,42
383,522	7,4
383,884	7,37
384,247	7,33
384,609	7,32
384,971	7,33
385,333	7,35
385,695	7,37
386,056	7,32
386,418	7,3
386,78	7,33
387,142	7,32
387,504	7,31
387,865	7,34
388,227	7,34
388,589	7,42
388,95	7,46
389,312	7,5
389,673	7,54
390,035	7,53
390,396	7,46
390,758	7,49
391,119	7,54
391,48	7,58
391,842	7,61
392,203	7,62
392,564	7,64
392,925	7,65
393,286	7,63
393,648	7,67
394,009	7,72
394,37	7,74
394,731	7,8
395,092	7,82
395,452	7,84
395,813	7,88
396,174	7,91
396,535	7,92
396,896	7,93
397,257	7,96
397,617	8,02
397,978	8,1
398,338	8,11
398,699	8,16
399,06	8,19
399,42	8,18
399,781	8,17
400,141	8,16
400,501	8,16
400,862	8,21
401,222	8,23
401,582	8,21
401,943	8,2
402,303	8,21
402,663	8,22
403,023	8,22
403,383	8,22
403,743	8,21
404,103	8,23
404,463	8,23
404,823	8,25
405,183	8,24
405,543	8,19
405,903	8,19
406,262	8,14
406,622	8,11
406,982	8,1
407,342	8,12
407,701	8,14
408,061	8,15
408,42	8,14
408,78	8,12
409,139	8,12
409,499	8,11
409,858	8,09
410,217	8,11
410,577	8,15
410,936	8,15
411,295	8,14
411,655	8,11
412,014	8,09
412,373	8,01
412,732	7,99
413,091	7,97
413,45	7,93
413,809	7,92
414,168	7,89
414,527	7,86
414,886	7,83
415,245	7,77
415,603	7,73
415,962	7,69
416,321	7,68
416,679	7,61
417,038	7,56
417,397	7,51
417,755	7,43
418,114	7,37
418,472	7,35
418,831	7,32
419,189	7,3
419,547	7,28
419,906	7,29
420,264	7,26
420,622	7,25
420,981	7,25
421,339	7,23
421,697	7,22
422,055	7,23
422,413	7,24
422,771	7,24
423,129	7,25
423,487	7,27
423,845	7,29
424,203	7,33
424,56	7,36
424,918	7,4
425,276	7,46
425,634	7,51
425,991	7,54
426,349	7,57
426,707	7,62
427,064	7,65
427,422	7,68
427,779	7,75
428,137	7,78
428,494	7,84
428,851	7,92
429,209	7,95
429,566	7,95
429,923	7,96
430,28	7,98
430,637	8
430,995	7,99
431,352	7,97
431,709	7,96
432,066	7,97
432,423	7,96
432,78	7,95
433,137	7,97
433,493	7,97
433,85	7,97
434,207	7,93
434,564	7,93
434,92	7,91
435,277	7,9
435,634	7,89
435,99	7,86
436,347	7,83
436,703	7,82
437,06	7,82
437,416	7,82
437,773	7,81
438,129	7,79
438,485	7,8
438,841	7,8
439,198	7,8
439,554	7,8
439,91	7,83
440,266	7,84
440,622	7,82
440,978	7,8
441,334	7,79
441,69	7,8
442,046	7,78
442,402	7,75
442,758	7,73
443,113	7,71
443,469	7,71
443,825	7,71
444,181	7,73
444,536	7,72
444,892	7,72
445,247	7,73
445,603	7,74
445,958	7,75
446,314	7,75
446,669	7,77
447,025	7,77
447,38	7,76
447,735	7,75
448,09	7,76
448,446	7,77
448,801	7,78
449,156	7,79
449,511	7,82
449,866	7,88
450,221	7,91
450,576	7,95
450,931	7,98
451,286	8,02
451,641	8,03
451,995	8,08
452,35	8,1
452,705	8,11
453,06	8,1
453,414	8,1
453,769	8,11
454,123	8,09
454,478	8,1
454,832	8,1
455,187	8,09
455,541	8,09
455,896	8,06
456,25	8,02
456,604	8,01
456,958	7,99
457,313	7,95
457,667	7,94
458,021	7,94
458,375	7,95
458,729	7,96
459,083	7,97
459,437	7,97
459,791	7,98
460,145	7,99
460,499	8,02
460,852	8,02
461,206	8,03
461,56	8,01
461,914	8,01
462,267	8,01
462,621	8,01
462,974	8,03
463,328	8,05
463,681	8,07
464,035	8,09
464,388	8,1
464,742	8,11
465,095	8,13
465,448	8,15
465,801	8,14
466,155	8,16
466,508	8,16
466,861	8,14
467,214	8,15
467,567	8,14
467,92	8,13
468,273	8,13
468,626	8,14
468,979	8,16
469,332	8,16
469,684	8,19
470,037	8,22
470,39	8,23
470,743	8,23
471,095	8,26
471,448	8,28
471,8	8,32
472,153	8,35
472,505	8,36
472,858	8,36
473,21	8,38
473,562	8,37
473,915	8,39
474,267	8,41
474,619	8,4
474,971	8,39
475,324	8,41
475,676	8,42
476,028	8,41
476,38	8,42
476,732	8,43
477,084	8,42
477,436	8,41
477,787	8,39
478,139	8,38
478,491	8,36
478,843	8,34
479,195	8,33
479,546	8,29
479,898	8,23
480,249	8,16
480,601	8,11
480,952	8,04
481,304	8,01
481,655	7,99
482,007	7,98
482,358	7,98
482,709	7,97
483,061	7,95
483,412	7,94
483,763	7,92
484,114	7,9
484,465	7,89
484,816	7,88
485,167	7,87
485,518	7,87
485,869	7,87
486,22	7,87
486,571	7,87
486,922	7,89
487,272	7,9
487,623	7,92
487,974	7,94
488,324	7,96
488,675	7,97
489,025	7,97
489,376	7,98
489,726	7,98
490,077	7,99
490,427	8,01
490,778	8,02
491,128	8,05
491,478	8,08
491,828	8,11
492,179	8,15
492,529	8,17
492,879	8,19
493,229	8,2
493,579	8,21
493,929	8,21
494,279	8,2
494,629	8,2
494,979	8,21
495,328	8,23
495,678	8,26
496,028	8,3
496,378	8,33
496,727	8,36
497,077	8,4
497,426	8,43
497,776	8,42
498,125	8,42
498,475	8,42
498,824	8,43
499,174	8,41
499,523	8,41
499,872	8,42
500,221	8,42
500,571	8,43
500,92	8,44
501,269	8,46
501,618	8,47
501,967	8,47
502,316	8,48
502,665	8,48
503,014	8,5
503,363	8,52
503,711	8,52
504,06	8,52
504,409	8,53
504,758	8,52
505,106	8,54
505,455	8,54
505,803	8,53
506,152	8,52
506,5	8,51
506,849	8,52
507,197	8,53
507,546	8,54
507,894	8,54
508,242	8,54
508,59	8,51
508,939	8,52
509,287	8,54
509,635	8,55
509,983	8,56
510,331	8,57
510,679	8,57
511,027	8,58
511,375	8,61
511,723	8,62
512,07	8,61
512,418	8,63
512,766	8,65
513,114	8,67
513,461	8,68
513,809	8,71
514,156	8,72
514,504	8,72
514,851	8,71
515,199	8,71
515,546	8,7
515,893	8,71
516,241	8,73
516,588	8,71
516,935	8,72
517,282	8,71
517,63	8,7
517,977	8,7
518,324	8,7
518,671	8,68
519,018	8,68
519,365	8,69
519,711	8,68
520,058	8,68
520,405	8,68
520,752	8,7
521,099	8,71
521,445	8,73
521,792	8,72
522,138	8,72
522,485	8,71
522,832	8,74
523,178	8,74
523,524	8,73
523,871	8,75
524,217	8,72
524,563	8,72
524,91	8,68
525,256	8,63
525,602	8,59
525,948	8,56
526,294	8,54
526,64	8,52
526,986	8,51
527,332	8,49
527,678	8,48
528,024	8,47
528,37	8,47
528,716	8,45
529,061	8,45
529,407	8,45
529,753	8,46
530,098	8,45
530,444	8,46
530,789	8,47
531,135	8,46
531,48	8,47
531,826	8,47
532,171	8,49
532,516	8,51
532,862	8,55
533,207	8,56
533,552	8,58
533,897	8,61
534,242	8,62
534,587	8,64
534,932	8,66
535,277	8,67
535,622	8,65
535,967	8,67
536,312	8,7
536,657	8,71
537,001	8,73
537,346	8,74
537,691	8,74
538,035	8,72
538,38	8,7
538,724	8,68
539,069	8,68
539,413	8,67
539,758	8,67
540,102	8,67
540,446	8,68
540,791	8,69
541,135	8,68
541,479	8,69
541,823	8,68
542,167	8,67
542,512	8,69
542,856	8,69
543,2	8,68
543,543	8,66
543,887	8,65
544,231	8,67
544,575	8,67
544,919	8,67
545,262	8,7
545,606	8,73
545,95	8,77
546,293	8,79
546,637	8,81
546,98	8,84
547,324	8,84
547,667	8,86
548,011	8,86
548,354	8,86
548,697	8,85
549,04	8,87
549,384	8,86
549,727	8,85
550,07	8,87
550,413	8,89
550,756	8,89
551,099	8,88
551,442	8,86
551,785	8,85
552,128	8,85
552,47	8,82
552,813	8,82
553,156	8,79
553,499	8,77
553,841	8,75
554,184	8,71
554,526	8,68
554,869	8,64
555,211	8,64
555,554	8,65
555,896	8,65
556,238	8,65
556,581	8,67
556,923	8,65
557,265	8,65
557,607	8,64
557,949	8,64
558,291	8,63
558,633	8,59
558,975	8,55
559,317	8,54
559,659	8,56
560,001	8,52
560,343	8,52
560,685	8,51
561,026	8,5
561,368	8,51
561,71	8,5
562,051	8,51
562,393	8,5
562,734	8,47
563,076	8,45
563,417	8,42
563,759	8,4
564,1	8,38
564,441	8,37
564,782	8,36
565,124	8,33
565,465	8,3
565,806	8,28
566,147	8,27
566,488	8,27
566,829	8,25
567,17	8,26
567,511	8,25
567,851	8,22
568,192	8,2
568,533	8,18
568,874	8,18
569,214	8,16
569,555	8,15
569,895	8,15
570,236	8,12
570,576	8,12
570,917	8,11
571,257	8,09
571,598	8,08
571,938	8,06
572,278	8,05
572,618	8,07
572,959	8,07
573,299	8,08
573,639	8,07
573,979	8,05
574,319	8,03
574,659	8,01
574,999	7,99
575,339	7,99
575,678	7,99
576,018	7,96
576,358	7,95
576,698	7,95
577,037	7,95
577,377	7,95
577,716	7,92
578,056	7,9
578,395	7,88
578,735	7,87
579,074	7,86
579,413	7,86
579,753	7,81
580,092	7,8
580,431	7,79
580,77	7,79
581,109	7,8
581,448	7,78
581,787	7,79
582,126	7,8
582,465	7,78
582,804	7,78
583,143	7,8
583,482	7,81
583,82	7,8
584,159	7,79
584,498	7,79
584,836	7,79
585,175	7,82
585,514	7,83
585,852	7,83
586,19	7,83
586,529	7,81
586,867	7,83
587,205	7,86
587,544	7,88
587,882	7,83
588,22	7,81
588,558	7,83
588,896	7,84
589,234	7,86
589,572	7,85
589,91	7,87
590,248	7,87
590,586	7,86
590,924	7,85
591,262	7,85
591,599	7,87
591,937	7,9
592,275	7,88
592,612	7,87
592,95	7,9
593,287	7,94
593,625	7,96
593,962	8
594,299	8,01
594,637	8,02
594,974	8,06
595,311	8,1
595,648	8,09
595,985	8,09
596,322	8,11
596,659	8,15
596,996	8,15
597,333	8,13
597,67	8,15
598,007	8,16
598,344	8,17
598,681	8,16
599,017	8,11
599,354	8,1
599,691	8,11
600,027	8,11
600,364	8,1
600,7	8,09
601,037	8,09
601,373	8,13
601,71	8,13
602,046	8,17
602,382	8,15
602,718	8,15
603,054	8,14
603,391	8,14
603,727	8,11
604,063	8,11
604,399	8,11
604,735	8,11
605,071	8,11
605,406	8,11
605,742	8,13
606,078	8,18
606,414	8,22
606,749	8,24
607,085	8,25
607,421	8,25
607,756	8,29
608,092	8,3
608,427	8,28
608,762	8,26
609,098	8,23
609,433	8,23
609,768	8,22
610,104	8,24
610,439	8,22
610,774	8,24
611,109	8,23
611,444	8,24
611,779	8,25
612,114	8,27
612,449	8,28
612,784	8,24
613,118	8,21
613,453	8,18
613,788	8,14
614,123	8,09
614,457	8,05
614,792	8,01
615,126	7,96
615,461	7,92
615,795	7,94
616,13	7,92
616,464	7,94
616,798	7,96
617,132	7,96
617,467	7,95
617,801	7,94
618,135	7,95
618,469	7,96
618,803	7,94
619,137	7,94
619,471	7,93
619,805	7,96
620,139	7,95
620,472	7,96
620,806	7,97
621,14	7,97
621,473	7,97
621,807	7,95
622,141	7,98
622,474	8,01
622,808	7,99
623,141	8
623,474	8,01
623,808	8,01
624,141	8
624,474	8,01
624,807	8,04
625,141	8,03
625,474	8,04
625,807	8,09
626,14	8,06
626,473	8,06
626,806	8,06
627,138	8,05
627,471	8,07
627,804	8,08
628,137	8,1
628,469	8,11
628,802	8,14
629,135	8,15
629,467	8,18
629,8	8,22
630,132	8,22
630,465	8,2
630,797	8,22
631,129	8,24
631,461	8,25
631,794	8,25
632,126	8,25
632,458	8,25
632,79	8,21
633,122	8,24
633,454	8,24
633,786	8,24
634,118	8,25
634,45	8,26
634,781	8,28
635,113	8,3
635,445	8,33
635,777	8,33
636,108	8,31
636,44	8,28
636,771	8,27
637,103	8,26
637,434	8,29
637,765	8,28
638,097	8,3
638,428	8,25
638,759	8,21
639,09	8,26
639,422	8,27
639,753	8,26
640,084	8,24
640,415	8,25
640,746	8,29
641,077	8,3
641,407	8,29
641,738	8,27
642,069	8,25
642,4	8,25
642,73	8,23
643,061	8,22
643,392	8,24
643,722	8,23
644,053	8,24
644,383	8,26
644,713	8,28
645,044	8,26
645,374	8,31
645,704	8,37
646,034	8,35
646,365	8,35
646,695	8,4
647,025	8,42
647,355	8,43
647,685	8,42
648,015	8,42
648,344	8,41
648,674	8,43
649,004	8,45
649,334	8,47
649,663	8,53
649,993	8,61
650,323	8,64
650,652	8,67
650,982	8,64
651,311	8,6
651,64	8,58
651,97	8,56
652,299	8,54
652,628	8,52
652,958	8,52
653,287	8,55
653,616	8,5
653,945	8,51
654,274	8,51
654,603	8,5
654,932	8,53
655,261	8,56
655,589	8,63
655,918	8,69
656,247	8,71
656,576	8,76
656,904	8,8
657,233	8,87
657,561	8,85
657,89	8,89
658,218	8,96
658,547	9,01
658,875	9,05
659,203	9,07
659,532	9,07
659,86	9,09
660,188	9,04
660,516	9,05
660,844	9,05
661,172	9,08
661,5	9,11
661,828	9,13
662,156	9,12
662,484	9,07
662,811	9,01
663,139	8,99
663,467	8,92
663,794	8,84
664,122	8,73
664,45	8,76
664,777	8,73
665,104	8,7
665,432	8,65
665,759	8,64
666,086	8,67
666,414	8,72
666,741	8,72
667,068	8,8
667,395	8,84
667,722	8,88
668,049	8,88
668,376	8,87
668,703	8,83
669,03	8,86
669,357	8,86
669,683	8,9
670,01	8,9
670,337	8,88
670,663	8,83
670,99	8,86
671,317	8,87
671,643	8,92
671,969	8,91
672,296	8,9
672,622	8,92
672,948	8,87
673,275	8,87
673,601	8,84
673,927	8,8
674,253	8,78
674,579	8,76
674,905	8,75
675,231	8,76
675,557	8,77
675,883	8,73
676,209	8,77
676,534	8,76
676,86	8,81
677,186	8,9
677,511	8,99
677,837	9,06
678,162	9,08
678,488	9,08
678,813	9,15
679,139	9,17
679,464	9,25
679,789	9,31
680,114	9,3
680,44	9,37
680,765	9,42
681,09	9,44
681,415	9,47
681,74	9,47
682,065	9,51
682,39	9,54
682,714	9,56
683,039	9,56
683,364	9,59
683,689	9,61
684,013	9,57
684,338	9,51
684,662	9,48
684,987	9,48
685,311	9,53
685,636	9,51
685,96	9,54
686,284	9,44
686,608	9,42
686,933	9,38
687,257	9,38
687,581	9,34
687,905	9,37
688,229	9,33
688,553	9,3
688,877	9,31
689,201	9,27
689,524	9,32
689,848	9,36
690,172	9,35
690,496	9,33
690,819	9,33
691,143	9,38
691,466	9,43
691,79	9,41
692,113	9,4
692,436	9,41
692,76	9,39
693,083	9,45
693,406	9,48
693,729	9,54
694,053	9,52
694,376	9,57
694,699	9,56
695,022	9,62
695,344	9,67
695,667	9,75
695,99	9,87
696,313	9,89
696,636	9,88
696,958	9,91
697,281	9,89
697,604	9,93
697,926	9,94
698,249	9,86
698,571	9,84
698,893	9,81
699,216	9,82
699,538	9,81
699,86	9,78
700,182	9,81
700,504	9,81
700,827	9,74
701,149	9,73
701,471	9,74
701,793	9,77
702,114	9,78
702,436	9,71
702,758	9,62
703,08	9,57
703,401	9,54
703,723	9,48
704,045	9,47
704,366	9,42
704,688	9,42
705,009	9,48
705,331	9,52
705,652	9,46
705,973	9,38
706,294	9,44
706,616	9,44
706,937	9,32
707,258	9,26
707,579	9,31
707,9	9,34
708,221	9,33
708,542	9,24
708,863	9,25
709,183	9,31
709,504	9,34
709,825	9,39
710,145	9,45
710,466	9,52
710,787	9,63
711,107	9,74
711,427	9,78
711,748	9,83
712,068	9,89
712,388	9,97
712,709	10,07
713,029	10,08
713,349	10,13
713,669	10,25
713,989	10,34
714,309	10,46
714,629	10,43
714,949	10,4
715,269	10,39
715,589	10,4
715,908	10,41
716,228	10,42
716,548	10,44
716,867	10,41
717,187	10,36
717,506	10,33
717,826	10,34
718,145	10,4
718,465	10,48
718,784	10,55
719,103	10,7
719,422	10,74
719,741	10,79
720,061	10,87
720,38	10,93
720,699	11,01
721,018	11,07
721,336	11,35
721,655	11,59
721,974	11,85
722,293	11,93
722,612	11,91
722,93	11,98
723,249	12,1
723,567	12,29
723,886	12,49
724,204	12,68
724,523	12,86
724,841	12,94
725,159	13,03
725,477	13,14
725,796	13,14
726,114	13,25
726,432	13,4
726,75	13,51
727,068	13,58
727,386	13,63
727,704	13,66
728,022	13,64
728,339	13,68
728,657	13,73
728,975	13,86
729,292	14,08
729,61	14,23
729,928	14,42
730,245	14,45
730,562	14,48
730,88	14,51
731,197	14,51
731,514	14,56
731,832	14,62
732,149	14,72
732,466	14,84
732,783	15,01
733,1	15,14
733,417	15,21
733,734	15,34
734,051	15,52
734,368	15,61
734,684	15,66
735,001	15,75
735,318	15,94
735,634	16,06
735,951	16,09
736,268	16,13
736,584	16,13
736,9	16,23
737,217	16,39
737,533	16,57
737,849	16,73
738,166	16,89
738,482	16,89
738,798	16,96
739,114	17,02
739,43	17,04
739,746	17,07
740,062	17,09
740,378	17,19
740,693	17,2
741,009	17,24
741,325	17,26
741,641	17,3
741,956	17,26
742,272	17,37
742,587	17,51
742,903	17,63
743,218	17,68
743,533	17,75
743,849	17,83
744,164	17,86
744,479	17,83
744,794	17,77
745,109	18
745,424	18
745,739	18,03
746,054	18,17
746,369	18,33
746,684	18,45
746,999	18,56
747,313	18,81
747,628	19,06
747,943	19,2
748,257	19,32
748,572	19,39
748,886	19,37
749,201	19,38
749,515	19,38
749,829	19,52
750,144	19,61
750,458	19,6
750,772	19,48
751,086	19,56
751,4	19,71
751,714	19,58
752,028	19,74
752,342	19,91
752,656	19,95
752,97	19,87
753,284	20,03
753,597	20,02
753,911	19,95
754,225	20,02
754,538	20,13
754,852	20,2
755,165	20,21
755,478	20,2
755,792	20,34
756,105	20,47
756,418	20,5
756,731	20,47
757,045	20,5
757,358	20,56
757,671	20,62
757,984	20,7
758,297	20,83
758,609	20,89
758,922	20,86
759,235	20,73
759,548	20,69
759,86	20,49
760,173	20,26
760,486	20,04
760,798	19,77
761,111	19,6
761,423	19,45
761,735	19,29
762,048	19,38
762,36	19,3
762,672	19,24
762,984	19,24
763,296	19,35
763,608	19,39
763,92	19,52
764,232	19,56
764,544	19,6
764,856	19,69
765,168	19,73
765,48	19,88
765,791	20,14
766,103	20,39
766,414	20,63
766,726	20,87
767,037	21,18
767,349	21,6
767,66	22
767,972	22,44
768,283	23,11
768,594	23,39
768,905	23,71
769,216	24,14
769,527	24,36
769,838	24,54
770,149	24,74
770,46	25,03
770,771	25,4
771,082	25,78
771,393	26,05
771,703	26,15
772,014	26,27
772,324	26,24
772,635	26,32
772,945	26,47
773,256	26,82
773,566	27,06
773,877	27,1
774,187	27,18
774,497	27,33
774,807	27,43
775,117	27,72
775,427	27,74
775,737	27,7
776,047	27,7
776,357	27,92
776,667	28,09
776,977	28,22
777,287	28,19
777,596	27,99
777,906	28,12
778,216	28,44
778,525	28,45
778,835	28,47
779,144	28,21
779,453	28,39
779,763	28,51
780,072	28,73
780,381	29,09
780,69	29,48
781	29,53
781,309	29,58
781,618	29,64
781,927	29,99
782,235	30,25
782,544	30,6
782,853	30,76
783,162	30,83
783,471	30,87
783,779	30,86
784,088	30,94
784,396	30,61
784,705	30,23
785,013	30,41
785,322	30,45
785,63	30,9
785,938	30,73
786,246	30,55
786,554	30,26
786,863	29,81
787,171	29,47
787,479	29,49
787,787	29,54
788,094	29,55
788,402	29,41
788,71	29,25
789,018	29,1
789,326	29,07
789,633	29,23
789,941	29,26
790,248	29,61
790,556	29,91
790,863	30,33
791,171	30,74
791,478	30,87
791,785	31,27
792,092	31,34
792,399	31,43
792,707	31,73
793,014	31,92
793,321	32,44
793,628	32,65
793,934	32,65
794,241	32,45
794,548	32,36
794,855	32,55
795,161	32,71
795,468	32,9
795,775	32,82
796,081	32,79
796,388	32,95
796,694	32,98
797	32,98
797,307	32,84
797,613	32,78
797,919	32,77
798,225	32,4
798,531	32,35
798,837	32,49
799,143	32,73
799,449	32,92
799,755	32,76
800,061	32,83
800,367	33,07
800,672	33,14
800,978	33,28
801,284	33,26
801,589	33,27
801,895	33,16
802,2	33,48
802,506	33,71
802,811	33,81
803,116	33,32
803,421	33,1
803,727	33,19
804,032	33,26
804,337	33,27
804,642	33,6
804,947	33,9
805,252	34,16
805,556	34,1
805,861	34,25
806,166	34,29
806,471	34,28
806,775	34,35
807,08	34,8
807,384	34,61
807,689	34,75
807,993	34,81
808,298	35,01
808,602	35,13
808,906	35,24
809,211	35,33
809,515	35,73
809,819	35,85
810,123	36,02
810,427	36,1
810,731	36,2
811,035	36,34
811,338	36,35
811,642	36,71
811,946	36,91
812,25	36,73
812,553	36,92
812,857	36,98
813,16	36,67
813,464	36,35
813,767	36,88
814,07	37,15
814,374	36,88
814,677	37,13
814,98	36,97
815,283	36,88
815,586	36,64
815,889	36,24
816,192	36,38
816,495	36,27
816,798	36,02
817,101	35,87
817,404	35,22
817,706	34,38
818,009	33,14
818,312	32,23
818,614	31,58
818,917	30,37
819,219	28,47
819,521	26,7
819,824	25,08
820,126	23,67
820,428	22,52
820,73	21,94
821,032	21,42
821,334	21,09
821,636	20,77
821,938	20,66
822,24	20,63
822,542	20,57
822,844	20,53
823,145	20,52
823,447	20,39
823,749	20,35
824,05	20,39
824,352	20,32
824,653	20,24
824,955	20,18
825,256	20,17
825,557	20,36
825,858	20,6
826,16	21,01
826,461	21,49
826,762	22,01
827,063	22,58
827,364	23,03
827,665	23,51
827,965	24
828,266	24,41
828,567	24,84
828,868	25,13
829,168	25,47
829,469	25,69
829,769	25,93
830,07	26,29
830,37	26,65
830,67	27,13
830,971	27,5
831,271	27,93
831,571	28,45
831,871	28,72
832,171	28,82
832,471	28,9
832,771	28,99
833,071	29,14
833,371	29,22
833,671	29,51
833,971	29,68
834,27	29,83
834,57	29,9
834,869	29,8
835,169	30,09
835,468	30,21
835,768	30,35
836,067	30,67
836,367	30,91
836,666	31,14
836,965	31,77
837,264	32,62
837,563	33,4
837,862	34,16
838,161	35,15
838,46	36,35
838,759	37,41
839,058	38,24
839,356	39,08
839,655	39,65
839,954	40,2
840,252	40,91
840,551	41,75
840,849	42,46
841,148	43,53
841,446	43,89
841,744	44,11
842,043	44,44
842,341	44,58
842,639	44,81
842,937	45,06
843,235	45,04
843,533	44,77
843,831	44,76
844,129	45,19
844,427	46,14
844,724	47,48
845,022	47,77
845,32	48,5
845,617	49,6
845,915	50,72
846,212	52,23
846,51	53,08
846,807	53,14
847,104	52,88
847,402	52,15
847,699	52,22
847,996	52,7
848,293	53,33
848,59	53,87
848,887	53,88
849,184	54,46
849,481	54,85
849,778	55,91
850,074	57,05
850,371	57,14
850,668	57,35
850,964	56,85
851,261	57,45
851,557	58,22
851,854	58,49
852,15	57,93
852,446	56,77
852,743	56,65
853,039	56,87
853,335	57,23
853,631	57,88
853,927	58,24
854,223	57,74
854,519	57,13
854,815	56,94
855,111	57,4
855,406	56,58
855,702	56,93
855,998	58,05
856,293	58,21
856,589	58,71
856,884	58,04
857,18	57,76
857,475	58,21
857,77	57,75
858,066	57,69
858,361	59,26
858,656	61,34
858,951	62,07
859,246	62,84
859,541	63,67
859,836	64,56
860,131	64,49
860,426	64,98
860,72	65,56
861,015	65,99
861,31	66,31
861,604	66,85
861,899	66,85
862,193	66
862,487	66,05
862,782	65,61
863,076	66,76
863,37	67,47
863,664	67,34
863,959	67,77
864,253	68,01
864,547	66,99
864,841	66,09
865,135	65,14
865,428	64,7
865,722	64,01
866,016	63,22
866,31	62,7
866,603	61,81
866,897	61,42
867,19	60,85
867,484	60,02
867,777	60,02
868,07	60,12
868,364	60,51
868,657	60,83
868,95	60,82
869,243	60,59
869,536	60,34
869,829	59,82
870,122	59,43
870,415	58,7
870,708	58,09
871	58,02
871,293	58,38
871,586	58,16
871,878	57,36
872,171	56,49
872,463	57,08
872,756	57,86
873,048	57,73
873,341	57,7
873,633	57,97
873,925	58,22
874,217	58,1
874,509	57,17
874,801	56,08
875,093	56,34
875,385	55,3
875,677	54,73
875,969	54,2
