Data from zc74019_2_Reflection_00003.txt Node
Date: Thu Mar 12 14:41:43 ART 2020
User: Ana
Spectrometer: USB2E3644
Trigger mode: 4
Integration Time (sec): 5,000000E-2
Scans to average: 10
Electric dark correction enabled: true
Nonlinearity correction enabled: false
Boxcar width: 10
XAxis mode: Wavelengths
Number of Pixels in Spectrum: 2048
>>>>>Begin Spectral Data<<<<<
178,315	137,59
178,696	127,93
179,076	109,26
179,457	90,19
179,838	75,2
180,218	69,31
180,599	45,56
180,979	13,79
181,36	165,56
181,74	153,97
182,121	168,59
182,501	139,31
182,881	131,28
183,262	121,2
183,642	115,78
184,022	114,36
184,402	122,63
184,783	129
185,163	128
185,543	130,01
185,923	133,4
186,303	137,39
186,683	137,79
187,063	137,65
187,443	138,1
187,823	142,9
188,203	148,27
188,583	154,07
188,963	153,96
189,343	149,95
189,723	147,38
190,102	145,53
190,482	145,17
190,862	145,93
191,242	145,48
191,621	145,22
192,001	143,75
192,38	142,97
192,76	140,7
193,14	138,87
193,519	137,8
193,898	139,51
194,278	138,98
194,657	136,45
195,037	133,05
195,416	128,61
195,795	125,83
196,175	126,21
196,554	125,6
196,933	126,52
197,312	129,42
197,692	131,33
198,071	131,54
198,45	131,11
198,829	132,47
199,208	134,24
199,587	134,51
199,966	133,62
200,345	132,58
200,724	133,53
201,103	135,02
201,482	134,8
201,86	131,48
202,239	129,85
202,618	129,02
202,997	128,55
203,375	130,13
203,754	131,7
204,133	130,88
204,511	128,32
204,89	127,46
205,269	126,44
205,647	124,65
206,026	125,83
206,404	128,85
206,782	129,04
207,161	129,02
207,539	130,22
207,918	131,75
208,296	132,27
208,674	132,27
209,052	134,05
209,431	137,8
209,809	143,08
210,187	147
210,565	149,9
210,943	152,86
211,321	154,1
211,699	153,06
212,077	152,31
212,455	154,69
212,833	157,09
213,211	156,67
213,589	160,17
213,967	159,71
214,345	155,23
214,722	149,59
215,1	146,79
215,478	144,99
215,855	145,61
216,233	145,87
216,611	142,72
216,988	137,2
217,366	131,01
217,743	128,72
218,121	128,55
218,498	127,62
218,876	126,01
219,253	125,17
219,631	125,99
220,008	126,8
220,385	127,94
220,762	127,35
221,14	128,69
221,517	126,25
221,894	123,92
222,271	124,07
222,648	127,66
223,025	129,57
223,402	129,31
223,78	128,03
224,157	129,87
224,533	135,83
224,91	145,93
225,287	156,47
225,664	162,26
226,041	166,15
226,418	170,63
226,795	175,63
227,171	184,15
227,548	189,41
227,925	191,73
228,301	194,06
228,678	195,55
229,055	194,16
229,431	198,48
229,808	204,28
230,184	205,37
230,561	210,41
230,937	220,57
231,313	233,28
231,69	240,78
232,066	243,52
232,442	234,57
232,819	224,63
233,195	216,05
233,571	214,59
233,947	211,71
234,323	212,94
234,699	216,5
235,075	217,68
235,451	222,79
235,827	227,37
236,203	234,88
236,579	248,12
236,955	267,84
237,331	290,73
237,707	334,9
238,083	416,67
238,459	553,56
238,834	982,62
239,21	6038,89
239,586	-1375,13
239,961	-791,89
240,337	-566,35
240,713	-489,53
241,088	-453,45
241,464	-425,27
241,839	-386,79
242,215	-321,35
242,59	-251,6
242,965	-176,27
243,341	-124,2
243,716	-92,79
244,091	-77,47
244,467	-68,75
244,842	-62,47
245,217	-58,16
245,592	-55,53
245,967	-56,1
246,343	-56
246,718	-55,64
247,093	-56,53
247,468	-57,46
247,843	-56,24
248,218	-53,67
248,593	-49,94
248,967	-46,23
249,342	-44,44
249,717	-43,49
250,092	-43,31
250,467	-44,54
250,841	-47,86
251,216	-53,27
251,591	-61,19
251,965	-68,67
252,34	-73,64
252,714	-80,14
253,089	-84,32
253,463	-87,45
253,838	-85,8
254,212	-83,17
254,587	-80,28
254,961	-73,65
255,335	-64,93
255,71	-55,71
256,084	-45,98
256,458	-38,67
256,832	-33,81
257,206	-31,17
257,581	-29,8
257,955	-28,97
258,329	-27,5
258,703	-25,89
259,077	-24,88
259,451	-23,94
259,825	-23,73
260,199	-24,39
260,572	-24,32
260,946	-24,26
261,32	-23,98
261,694	-23,31
262,068	-22,87
262,441	-22,69
262,815	-22,9
263,189	-22,78
263,562	-23,15
263,936	-24,59
264,309	-26,89
264,683	-29,34
265,056	-30,25
265,43	-30,76
265,803	-30,66
266,176	-30,24
266,55	-29,77
266,923	-29,15
267,296	-28,28
267,67	-26,92
268,043	-25,53
268,416	-24,17
268,789	-22,89
269,162	-21,65
269,535	-20,75
269,908	-20,19
270,281	-19,75
270,654	-19,46
271,027	-19,75
271,4	-19,84
271,773	-19,79
272,146	-19,51
272,519	-19,38
272,891	-19,28
273,264	-19,2
273,637	-18,93
274,01	-18,8
274,382	-19,17
274,755	-19,35
275,127	-19,51
275,5	-19,75
275,872	-19,68
276,245	-19,77
276,617	-20,09
276,99	-20,33
277,362	-20,55
277,734	-20,43
278,107	-20,13
278,479	-19,85
278,851	-19,48
279,223	-19,09
279,596	-18,86
279,968	-18,98
280,34	-18,82
280,712	-18,48
281,084	-17,72
281,456	-16,91
281,828	-16,24
282,2	-15,28
282,572	-14,42
282,944	-13,87
283,315	-13,47
283,687	-13,07
284,059	-12,83
284,431	-12,57
284,802	-12,27
285,174	-11,98
285,546	-11,64
285,917	-11,32
286,289	-11,2
286,66	-11,11
287,032	-11,05
287,403	-10,99
287,775	-10,91
288,146	-10,96
288,518	-11,16
288,889	-11,24
289,26	-11,45
289,632	-11,76
290,003	-12,15
290,374	-12,38
290,745	-12,52
291,116	-12,67
291,487	-12,89
291,858	-12,63
292,229	-12,42
292,6	-12,13
292,971	-11,68
293,342	-11,34
293,713	-10,88
294,084	-10,37
294,455	-9,86
294,826	-9,67
295,196	-9,68
295,567	-9,79
295,938	-9,65
296,308	-9,39
296,679	-9,18
297,05	-9,06
297,42	-8,86
297,791	-8,54
298,161	-8,46
298,532	-8,32
298,902	-8,19
299,272	-8,03
299,643	-8,03
300,013	-7,85
300,383	-7,66
300,754	-7,71
301,124	-7,92
301,494	-8,24
301,864	-8,51
302,234	-8,87
302,604	-8,92
302,974	-8,8
303,344	-8,58
303,714	-8,62
304,084	-8,52
304,454	-8,45
304,824	-8,38
305,194	-8,33
305,563	-8,19
305,933	-7,98
306,303	-7,71
306,673	-7,38
307,042	-7,18
307,412	-6,91
307,781	-6,54
308,151	-6,34
308,521	-6,25
308,89	-6,05
309,259	-5,98
309,629	-5,91
309,998	-5,78
310,368	-5,8
310,737	-5,84
311,106	-5,74
311,475	-5,49
311,845	-5,48
312,214	-5,4
312,583	-5,31
312,952	-5,29
313,321	-5,26
313,69	-5,08
314,059	-4,96
314,428	-5,03
314,797	-5,02
315,166	-5,21
315,535	-5,62
315,904	-5,98
316,272	-6,11
316,641	-6,24
317,01	-6,21
317,379	-6,06
317,747	-5,97
318,116	-5,79
318,484	-5,55
318,853	-5,58
319,221	-5,69
319,59	-5,77
319,958	-5,75
320,327	-5,69
320,695	-5,62
321,063	-5,51
321,432	-5,37
321,8	-5,23
322,168	-5,12
322,536	-5,15
322,905	-4,91
323,273	-4,56
323,641	-4,3
324,009	-4,16
324,377	-4,05
324,745	-3,96
325,113	-3,82
325,481	-3,54
325,849	-3,31
326,216	-3,2
326,584	-2,95
326,952	-2,71
327,32	-2,41
327,687	-2,29
328,055	-2,13
328,423	-1,93
328,79	-1,86
329,158	-1,92
329,525	-2,01
329,893	-1,9
330,26	-1,68
330,628	-1,63
330,995	-1,63
331,362	-1,58
331,73	-1,48
332,097	-1,29
332,464	-1,18
332,831	-1,14
333,199	-1,17
333,566	-1,13
333,933	-1,06
334,3	-1,06
334,667	-1,05
335,034	-1
335,401	-0,93
335,768	-0,92
336,135	-0,97
336,502	-1
336,868	-0,99
337,235	-0,95
337,602	-0,96
337,969	-0,93
338,335	-0,79
338,702	-0,66
339,069	-0,62
339,435	-0,61
339,802	-0,58
340,168	-0,5
340,535	-0,39
340,901	-0,43
341,267	-0,46
341,634	-0,37
342	-0,25
342,366	-0,17
342,733	-0,11
343,099	-0,01
343,465	0,08
343,831	0,13
344,197	0,26
344,563	0,31
344,929	0,38
345,295	0,5
345,661	0,59
346,027	0,63
346,393	0,59
346,759	0,63
347,125	0,66
347,491	0,68
347,856	0,66
348,222	0,6
348,588	0,74
348,953	0,82
349,319	0,75
349,684	0,72
350,05	0,76
350,415	0,8
350,781	0,83
351,146	0,9
351,512	0,95
351,877	0,94
352,242	0,95
352,608	0,97
352,973	1,01
353,338	1,06
353,703	1,1
354,068	1,15
354,433	1,21
354,798	1,26
355,164	1,29
355,528	1,34
355,893	1,37
356,258	1,37
356,623	1,46
356,988	1,62
357,353	1,68
357,718	1,72
358,082	1,75
358,447	1,75
358,812	1,81
359,176	1,89
359,541	1,98
359,905	2,03
360,27	2,06
360,634	2,06
360,999	2,11
361,363	2,15
361,728	2,24
362,092	2,27
362,456	2,32
362,821	2,44
363,185	2,54
363,549	2,67
363,913	2,72
364,277	2,74
364,641	2,76
365,005	2,86
365,369	2,94
365,733	3,04
366,097	3,15
366,461	3,24
366,825	3,29
367,189	3,36
367,553	3,48
367,916	3,67
368,28	3,8
368,644	3,87
369,007	3,94
369,371	3,99
369,734	4,06
370,098	4,1
370,461	4,11
370,825	4,14
371,188	4,19
371,552	4,28
371,915	4,32
372,278	4,39
372,642	4,46
373,005	4,56
373,368	4,69
373,731	4,77
374,094	4,83
374,457	4,89
374,82	4,95
375,183	4,99
375,546	5,03
375,909	5,09
376,272	5,2
376,635	5,28
376,998	5,37
377,361	5,48
377,723	5,57
378,086	5,67
378,449	5,73
378,811	5,77
379,174	5,85
379,537	5,95
379,899	5,99
380,262	6,02
380,624	6,04
380,987	6,08
381,349	6,16
381,711	6,24
382,074	6,31
382,436	6,41
382,798	6,52
383,16	6,54
383,522	6,58
383,884	6,61
384,247	6,64
384,609	6,68
384,971	6,68
385,333	6,69
385,695	6,71
386,056	6,74
386,418	6,77
386,78	6,78
387,142	6,75
387,504	6,76
387,865	6,79
388,227	6,8
388,589	6,78
388,95	6,76
389,312	6,72
389,673	6,73
390,035	6,73
390,396	6,71
390,758	6,71
391,119	6,71
391,48	6,71
391,842	6,71
392,203	6,73
392,564	6,73
392,925	6,78
393,286	6,81
393,648	6,83
394,009	6,87
394,37	6,88
394,731	6,94
395,092	6,97
395,452	6,98
395,813	7,01
396,174	7,02
396,535	7,04
396,896	7,07
397,257	7,08
397,617	7,1
397,978	7,13
398,338	7,16
398,699	7,19
399,06	7,24
399,42	7,25
399,781	7,27
400,141	7,28
400,501	7,27
400,862	7,28
401,222	7,29
401,582	7,26
401,943	7,25
402,303	7,23
402,663	7,23
403,023	7,22
403,383	7,25
403,743	7,26
404,103	7,28
404,463	7,31
404,823	7,36
405,183	7,37
405,543	7,4
405,903	7,42
406,262	7,41
406,622	7,38
406,982	7,39
407,342	7,39
407,701	7,41
408,061	7,44
408,42	7,46
408,78	7,48
409,139	7,49
409,499	7,52
409,858	7,55
410,217	7,57
410,577	7,59
410,936	7,56
411,295	7,56
411,655	7,54
412,014	7,51
412,373	7,47
412,732	7,45
413,091	7,41
413,45	7,37
413,809	7,33
414,168	7,29
414,527	7,25
414,886	7,22
415,245	7,16
415,603	7,11
415,962	7,07
416,321	7,02
416,679	7,01
417,038	6,97
417,397	6,93
417,755	6,89
418,114	6,85
418,472	6,83
418,831	6,81
419,189	6,8
419,547	6,78
419,906	6,75
420,264	6,73
420,622	6,71
420,981	6,69
421,339	6,68
421,697	6,69
422,055	6,69
422,413	6,7
422,771	6,73
423,129	6,74
423,487	6,76
423,845	6,79
424,203	6,81
424,56	6,83
424,918	6,86
425,276	6,9
425,634	6,95
425,991	6,98
426,349	7
426,707	7,04
427,064	7,09
427,422	7,14
427,779	7,18
428,137	7,24
428,494	7,31
428,851	7,33
429,209	7,36
429,566	7,38
429,923	7,38
430,28	7,37
430,637	7,4
430,995	7,38
431,352	7,35
431,709	7,33
432,066	7,33
432,423	7,31
432,78	7,31
433,137	7,29
433,493	7,28
433,85	7,3
434,207	7,27
434,564	7,24
434,92	7,23
435,277	7,22
435,634	7,22
435,99	7,19
436,347	7,19
436,703	7,19
437,06	7,19
437,416	7,21
437,773	7,2
438,129	7,18
438,485	7,19
438,841	7,19
439,198	7,2
439,554	7,21
439,91	7,21
440,266	7,22
440,622	7,23
440,978	7,23
441,334	7,22
441,69	7,22
442,046	7,23
442,402	7,22
442,758	7,22
443,113	7,2
443,469	7,2
443,825	7,2
444,181	7,2
444,536	7,21
444,892	7,19
445,247	7,22
445,603	7,24
445,958	7,25
446,314	7,26
446,669	7,26
447,025	7,27
447,38	7,27
447,735	7,28
448,09	7,3
448,446	7,31
448,801	7,32
449,156	7,34
449,511	7,36
449,866	7,39
450,221	7,41
450,576	7,45
450,931	7,5
451,286	7,54
451,641	7,57
451,995	7,6
452,35	7,64
452,705	7,65
453,06	7,67
453,414	7,69
453,769	7,7
454,123	7,69
454,478	7,7
454,832	7,7
455,187	7,68
455,541	7,66
455,896	7,63
456,25	7,65
456,604	7,65
456,958	7,63
457,313	7,6
457,667	7,59
458,021	7,58
458,375	7,58
458,729	7,59
459,083	7,6
459,437	7,6
459,791	7,59
460,145	7,59
460,499	7,57
460,852	7,56
461,206	7,56
461,56	7,58
461,914	7,58
462,267	7,58
462,621	7,6
462,974	7,61
463,328	7,62
463,681	7,61
464,035	7,63
464,388	7,64
464,742	7,69
465,095	7,7
465,448	7,69
465,801	7,66
466,155	7,65
466,508	7,64
466,861	7,63
467,214	7,62
467,567	7,61
467,92	7,62
468,273	7,61
468,626	7,61
468,979	7,62
469,332	7,62
469,684	7,64
470,037	7,64
470,39	7,66
470,743	7,67
471,095	7,67
471,448	7,66
471,8	7,66
472,153	7,66
472,505	7,68
472,858	7,7
473,21	7,75
473,562	7,76
473,915	7,78
474,267	7,81
474,619	7,81
474,971	7,79
475,324	7,78
475,676	7,81
476,028	7,82
476,38	7,82
476,732	7,82
477,084	7,8
477,436	7,77
477,787	7,78
478,139	7,76
478,491	7,78
478,843	7,78
479,195	7,79
479,546	7,78
479,898	7,75
480,249	7,71
480,601	7,67
480,952	7,66
481,304	7,64
481,655	7,61
482,007	7,6
482,358	7,6
482,709	7,59
483,061	7,57
483,412	7,56
483,763	7,56
484,114	7,56
484,465	7,56
484,816	7,56
485,167	7,56
485,518	7,55
485,869	7,55
486,22	7,55
486,571	7,54
486,922	7,54
487,272	7,54
487,623	7,55
487,974	7,56
488,324	7,56
488,675	7,56
489,025	7,57
489,376	7,57
489,726	7,58
490,077	7,59
490,427	7,61
490,778	7,62
491,128	7,62
491,478	7,63
491,828	7,65
492,179	7,67
492,529	7,69
492,879	7,71
493,229	7,71
493,579	7,74
493,929	7,77
494,279	7,78
494,629	7,8
494,979	7,82
495,328	7,84
495,678	7,86
496,028	7,9
496,378	7,94
496,727	7,98
497,077	7,99
497,426	8,03
497,776	8,04
498,125	8,03
498,475	8,05
498,824	8,06
499,174	8,04
499,523	8,06
499,872	8,06
500,221	8,07
500,571	8,08
500,92	8,09
501,269	8,1
501,618	8,08
501,967	8,09
502,316	8,09
502,665	8,09
503,014	8,1
503,363	8,1
503,711	8,11
504,06	8,1
504,409	8,11
504,758	8,1
505,106	8,11
505,455	8,13
505,803	8,13
506,152	8,12
506,5	8,13
506,849	8,12
507,197	8,12
507,546	8,13
507,894	8,13
508,242	8,12
508,59	8,11
508,939	8,12
509,287	8,12
509,635	8,12
509,983	8,13
510,331	8,15
510,679	8,17
511,027	8,18
511,375	8,18
511,723	8,2
512,07	8,2
512,418	8,21
512,766	8,21
513,114	8,23
513,461	8,25
513,809	8,26
514,156	8,26
514,504	8,27
514,851	8,26
515,199	8,26
515,546	8,27
515,893	8,26
516,241	8,28
516,588	8,29
516,935	8,3
517,282	8,29
517,63	8,29
517,977	8,28
518,324	8,29
518,671	8,3
519,018	8,3
519,365	8,31
519,711	8,31
520,058	8,33
520,405	8,33
520,752	8,32
521,099	8,34
521,445	8,36
521,792	8,34
522,138	8,35
522,485	8,36
522,832	8,36
523,178	8,37
523,524	8,37
523,871	8,37
524,217	8,37
524,563	8,39
524,91	8,38
525,256	8,37
525,602	8,35
525,948	8,33
526,294	8,3
526,64	8,27
526,986	8,25
527,332	8,22
527,678	8,22
528,024	8,22
528,37	8,21
528,716	8,2
529,061	8,21
529,407	8,21
529,753	8,22
530,098	8,22
530,444	8,22
530,789	8,21
531,135	8,21
531,48	8,19
531,826	8,18
532,171	8,17
532,516	8,17
532,862	8,18
533,207	8,19
533,552	8,22
533,897	8,26
534,242	8,27
534,587	8,29
534,932	8,31
535,277	8,32
535,622	8,32
535,967	8,34
536,312	8,35
536,657	8,36
537,001	8,37
537,346	8,38
537,691	8,39
538,035	8,42
538,38	8,43
538,724	8,43
539,069	8,43
539,413	8,44
539,758	8,44
540,102	8,44
540,446	8,42
540,791	8,41
541,135	8,41
541,479	8,43
541,823	8,43
542,167	8,43
542,512	8,44
542,856	8,44
543,2	8,45
543,543	8,44
543,887	8,43
544,231	8,44
544,575	8,43
544,919	8,44
545,262	8,43
545,606	8,44
545,95	8,45
546,293	8,46
546,637	8,48
546,98	8,49
547,324	8,49
547,667	8,54
548,011	8,55
548,354	8,56
548,697	8,55
549,04	8,55
549,384	8,55
549,727	8,55
550,07	8,55
550,413	8,53
550,756	8,54
551,099	8,56
551,442	8,55
551,785	8,56
552,128	8,57
552,47	8,58
552,813	8,58
553,156	8,59
553,499	8,59
553,841	8,58
554,184	8,58
554,526	8,58
554,869	8,55
555,211	8,55
555,554	8,56
555,896	8,56
556,238	8,53
556,581	8,51
556,923	8,47
557,265	8,47
557,607	8,47
557,949	8,45
558,291	8,44
558,633	8,39
558,975	8,38
559,317	8,36
559,659	8,33
560,001	8,33
560,343	8,31
560,685	8,29
561,026	8,28
561,368	8,27
561,71	8,25
562,051	8,24
562,393	8,25
562,734	8,21
563,076	8,19
563,417	8,18
563,759	8,2
564,1	8,2
564,441	8,17
564,782	8,13
565,124	8,13
565,465	8,14
565,806	8,15
566,147	8,14
566,488	8,11
566,829	8,1
567,17	8,09
567,511	8,08
567,851	8,07
568,192	8,04
568,533	8,02
568,874	8,02
569,214	8,03
569,555	7,99
569,895	7,98
570,236	7,95
570,576	7,94
570,917	7,91
571,257	7,91
571,598	7,92
571,938	7,96
572,278	7,96
572,618	7,94
572,959	7,93
573,299	7,91
573,639	7,89
573,979	7,89
574,319	7,86
574,659	7,86
574,999	7,86
575,339	7,85
575,678	7,83
576,018	7,8
576,358	7,78
576,698	7,79
577,037	7,78
577,377	7,79
577,716	7,78
578,056	7,77
578,395	7,75
578,735	7,72
579,074	7,68
579,413	7,65
579,753	7,62
580,092	7,59
580,431	7,61
580,77	7,6
581,109	7,58
581,448	7,57
581,787	7,54
582,126	7,54
582,465	7,53
582,804	7,53
583,143	7,54
583,482	7,52
583,82	7,51
584,159	7,53
584,498	7,55
584,836	7,55
585,175	7,55
585,514	7,55
585,852	7,56
586,19	7,56
586,529	7,55
586,867	7,54
587,205	7,53
587,544	7,54
587,882	7,55
588,22	7,58
588,558	7,61
588,896	7,63
589,234	7,63
589,572	7,63
589,91	7,63
590,248	7,64
590,586	7,67
590,924	7,64
591,262	7,64
591,599	7,64
591,937	7,64
592,275	7,66
592,612	7,69
592,95	7,69
593,287	7,71
593,625	7,76
593,962	7,78
594,299	7,83
594,637	7,84
594,974	7,85
595,311	7,84
595,648	7,84
595,985	7,85
596,322	7,86
596,659	7,88
596,996	7,9
597,333	7,88
597,67	7,87
598,007	7,89
598,344	7,89
598,681	7,9
599,017	7,91
599,354	7,92
599,691	7,91
600,027	7,94
600,364	7,94
600,7	7,94
601,037	7,94
601,373	7,93
601,71	7,95
602,046	7,96
602,382	7,99
602,718	7,99
603,054	7,99
603,391	8
603,727	8
604,063	7,99
604,399	8,03
604,735	8,05
605,071	8,05
605,406	8,06
605,742	8,06
606,078	8,07
606,414	8,08
606,749	8,1
607,085	8,09
607,421	8,11
607,756	8,1
608,092	8,11
608,427	8,11
608,762	8,06
609,098	8,03
609,433	8,01
609,768	8
610,104	7,99
610,439	7,97
610,774	7,97
611,109	7,96
611,444	7,92
611,779	7,89
612,114	7,87
612,449	7,84
612,784	7,83
613,118	7,79
613,453	7,76
613,788	7,72
614,123	7,68
614,457	7,65
614,792	7,63
615,126	7,6
615,461	7,6
615,795	7,63
616,13	7,63
616,464	7,63
616,798	7,64
617,132	7,61
617,467	7,61
617,801	7,61
618,135	7,62
618,469	7,62
618,803	7,63
619,137	7,66
619,471	7,67
619,805	7,67
620,139	7,69
620,472	7,71
620,806	7,71
621,14	7,73
621,473	7,75
621,807	7,75
622,141	7,76
622,474	7,75
622,808	7,72
623,141	7,75
623,474	7,78
623,808	7,8
624,141	7,87
624,474	7,88
624,807	7,88
625,141	7,87
625,474	7,9
625,807	7,91
626,14	7,9
626,473	7,9
626,806	7,93
627,138	7,93
627,471	7,93
627,804	7,95
628,137	7,94
628,469	7,93
628,802	7,94
629,135	7,93
629,467	7,92
629,8	7,92
630,132	7,9
630,465	7,88
630,797	7,85
631,129	7,81
631,461	7,81
631,794	7,84
632,126	7,87
632,458	7,88
632,79	7,92
633,122	7,94
633,454	7,96
633,786	7,94
634,118	7,91
634,45	7,92
634,781	7,9
635,113	7,9
635,445	7,91
635,777	7,94
636,108	7,95
636,44	7,98
636,771	8
637,103	8
637,434	8,02
637,765	8,03
638,097	8,05
638,428	8,06
638,759	8,02
639,09	7,99
639,422	7,94
639,753	7,88
640,084	7,84
640,415	7,85
640,746	7,88
641,077	7,95
641,407	7,96
641,738	7,96
642,069	7,99
642,4	7,99
642,73	7,98
643,061	8
643,392	7,99
643,722	7,97
644,053	7,99
644,383	7,99
644,713	8
645,044	7,98
645,374	7,97
645,704	7,99
646,034	8
646,365	8,04
646,695	8,1
647,025	8,14
647,355	8,13
647,685	8,12
648,015	8,08
648,344	8,06
648,674	8,07
649,004	8,04
649,334	8,02
649,663	8,05
649,993	8,08
650,323	8,11
650,652	8,14
650,982	8,16
651,311	8,15
651,64	8,16
651,97	8,21
652,299	8,22
652,628	8,25
652,958	8,29
653,287	8,31
653,616	8,3
653,945	8,3
654,274	8,3
654,603	8,3
654,932	8,3
655,261	8,32
655,589	8,38
655,918	8,42
656,247	8,47
656,576	8,48
656,904	8,5
657,233	8,49
657,561	8,48
657,89	8,51
658,218	8,52
658,547	8,55
658,875	8,55
659,203	8,57
659,532	8,55
659,86	8,55
660,188	8,54
660,516	8,56
660,844	8,58
661,172	8,6
661,5	8,6
661,828	8,63
662,156	8,63
662,484	8,59
662,811	8,59
663,139	8,58
663,467	8,55
663,794	8,5
664,122	8,52
664,45	8,57
664,777	8,57
665,104	8,61
665,432	8,59
665,759	8,56
666,086	8,59
666,414	8,59
666,741	8,61
667,068	8,63
667,395	8,61
667,722	8,58
668,049	8,59
668,376	8,62
668,703	8,65
669,03	8,69
669,357	8,69
669,683	8,7
670,01	8,72
670,337	8,73
670,663	8,77
670,99	8,73
671,317	8,73
671,643	8,69
671,969	8,63
672,296	8,64
672,622	8,66
672,948	8,63
673,275	8,58
673,601	8,54
673,927	8,48
674,253	8,5
674,579	8,53
674,905	8,53
675,231	8,5
675,557	8,47
675,883	8,44
676,209	8,46
676,534	8,49
676,86	8,51
677,186	8,54
677,511	8,55
677,837	8,61
678,162	8,61
678,488	8,64
678,813	8,68
679,139	8,69
679,464	8,7
679,789	8,7
680,114	8,76
680,44	8,82
680,765	8,87
681,09	8,87
681,415	8,82
681,74	8,83
682,065	8,85
682,39	8,85
682,714	8,85
683,039	8,85
683,364	8,86
683,689	8,85
684,013	8,81
684,338	8,8
684,662	8,74
684,987	8,73
685,311	8,74
685,636	8,75
685,96	8,73
686,284	8,74
686,608	8,73
686,933	8,74
687,257	8,74
687,581	8,75
687,905	8,77
688,229	8,82
688,553	8,82
688,877	8,83
689,201	8,86
689,524	8,9
689,848	8,9
690,172	8,87
690,496	8,85
690,819	8,88
691,143	8,89
691,466	8,94
691,79	8,93
692,113	8,93
692,436	8,92
692,76	8,95
693,083	8,96
693,406	8,95
693,729	8,89
694,053	8,84
694,376	8,82
694,699	8,83
695,022	8,85
695,344	8,9
695,667	8,92
695,99	8,96
696,313	8,99
696,636	9,04
696,958	9,12
697,281	9,18
697,604	9,19
697,926	9,19
698,249	9,18
698,571	9,19
698,893	9,13
699,216	9,13
699,538	9,13
699,86	9,17
700,182	9,2
700,504	9,21
700,827	9,22
701,149	9,21
701,471	9,21
701,793	9,19
702,114	9,17
702,436	9,18
702,758	9,08
703,08	9
703,401	8,97
703,723	8,93
704,045	8,88
704,366	8,84
704,688	8,86
705,009	8,89
705,331	8,92
705,652	9,03
705,973	9,06
706,294	9,07
706,616	9,04
706,937	9,1
707,258	9,1
707,579	9,06
707,9	9,04
708,221	9,03
708,542	9,06
708,863	9,05
709,183	9,01
709,504	9,07
709,825	9,14
710,145	9,15
710,466	9,16
710,787	9,17
711,107	9,23
711,427	9,21
711,748	9,22
712,068	9,32
712,388	9,41
712,709	9,43
713,029	9,47
713,349	9,47
713,669	9,44
713,989	9,52
714,309	9,63
714,629	9,74
714,949	9,81
715,269	9,84
715,589	9,91
715,908	9,96
716,228	9,98
716,548	9,99
716,867	9,98
717,187	10,02
717,506	10,1
717,826	10,1
718,145	10,2
718,465	10,24
718,784	10,18
719,103	10,13
719,422	10,14
719,741	10,15
720,061	10,21
720,38	10,35
720,699	10,46
721,018	10,56
721,336	10,64
721,655	10,8
721,974	10,95
722,293	10,99
722,612	11,16
722,93	11,32
723,249	11,44
723,567	11,64
723,886	11,73
724,204	11,82
724,523	11,95
724,841	12,02
725,159	12,12
725,477	12,28
725,796	12,44
726,114	12,63
726,432	12,84
726,75	13,01
727,068	13,11
727,386	13,26
727,704	13,34
728,022	13,43
728,339	13,4
728,657	13,35
728,975	13,47
729,292	13,51
729,61	13,55
729,928	13,64
730,245	13,7
730,562	13,83
730,88	13,94
731,197	14,1
731,514	14,19
731,832	14,25
732,149	14,28
732,466	14,29
732,783	14,28
733,1	14,29
733,417	14,43
733,734	14,54
734,051	14,59
734,368	14,64
734,684	14,7
735,001	14,77
735,318	14,86
735,634	14,92
735,951	15
736,268	15,02
736,584	15,03
736,9	15,08
737,217	15,07
737,533	15,08
737,849	15,12
738,166	15,24
738,482	15,42
738,798	15,59
739,114	15,74
739,43	15,83
739,746	15,9
740,062	15,85
740,378	15,83
740,693	15,84
741,009	16,01
741,325	16,16
741,641	16,24
741,956	16,39
742,272	16,47
742,587	16,53
742,903	16,68
743,218	16,78
743,533	16,87
743,849	17,08
744,164	17,2
744,479	17,27
744,794	17,37
745,109	17,39
745,424	17,44
745,739	17,47
746,054	17,49
746,369	17,52
746,684	17,59
746,999	17,68
747,313	17,82
747,628	17,81
747,943	17,75
748,257	17,82
748,572	18,04
748,886	18,24
749,201	18,39
749,515	18,46
749,829	18,57
750,144	18,71
750,458	18,73
750,772	18,78
751,086	18,82
751,4	18,8
751,714	18,8
752,028	18,78
752,342	18,86
752,656	18,94
752,97	19,11
753,284	19,21
753,597	19,29
753,911	19,28
754,225	19,21
754,538	19,26
754,852	19,37
755,165	19,27
755,478	19,16
755,792	19,19
756,105	19,27
756,418	19,4
756,731	19,36
757,045	19,38
757,358	19,41
757,671	19,37
757,984	19,54
758,297	19,65
758,609	19,74
758,922	19,8
759,235	19,87
759,548	19,72
759,86	19,57
760,173	19,42
760,486	19,24
760,798	19,16
761,111	19,09
761,423	19,08
761,735	19,08
762,048	19,06
762,36	19,06
762,672	19,14
762,984	19,02
763,296	19,11
763,608	19,21
763,92	19,32
764,232	19,42
764,544	19,39
764,856	19,5
765,168	19,61
765,48	19,71
765,791	19,81
766,103	20
766,414	20,21
766,726	20,52
767,037	20,87
767,349	21,22
767,66	21,57
767,972	21,91
768,283	22,29
768,594	22,68
768,905	23,02
769,216	23,26
769,527	23,68
769,838	23,85
770,149	24,03
770,46	24,24
770,771	24,54
771,082	24,72
771,393	24,79
771,703	24,87
772,014	24,96
772,324	25,07
772,635	25,25
772,945	25,44
773,256	25,53
773,566	25,64
773,877	25,86
774,187	25,96
774,497	26,06
774,807	26,07
775,117	26,09
775,427	26,1
775,737	26,1
776,047	26,23
776,357	26,41
776,667	26,43
776,977	26,59
777,287	26,71
777,596	26,83
777,906	27
778,216	27,3
778,525	27,59
778,835	27,89
779,144	27,69
779,453	27,68
779,763	27,88
780,072	28,08
780,381	28,15
780,69	28,26
781	28,3
781,309	28,37
781,618	28,51
781,927	28,65
782,235	28,77
782,544	28,92
782,853	29,17
783,162	29,33
783,471	29,13
783,779	29,16
784,088	29,37
784,396	29,48
784,705	29,36
785,013	29,22
785,322	28,99
785,63	29,2
785,938	29,06
786,246	28,59
786,554	28,35
786,863	28,31
787,171	28,23
787,479	28,17
787,787	28,2
788,094	28,24
788,402	28,21
788,71	28,27
789,018	28,1
789,326	27,83
789,633	27,86
789,941	28,14
790,248	28,16
790,556	27,98
790,863	27,82
791,171	27,83
791,478	27,93
791,785	28,05
792,092	28,12
792,399	28,32
792,707	28,74
793,014	28,96
793,321	29,05
793,628	29,35
793,934	29,57
794,241	29,65
794,548	29,67
794,855	29,67
795,161	29,66
795,468	29,83
795,775	30,06
796,081	30,11
796,388	30,13
796,694	30,23
797	30,37
797,307	30,78
797,613	30,89
797,919	30,69
798,225	30,63
798,531	30,6
798,837	30,5
799,143	30,5
799,449	30,62
799,755	30,77
800,061	30,77
800,367	30,79
800,672	30,94
800,978	31,11
801,284	31,32
801,589	31,36
801,895	31,38
802,2	31,42
802,506	31,53
802,811	31,51
803,116	31,5
803,421	31,45
803,727	31,17
804,032	30,99
804,337	31,17
804,642	31,39
804,947	31,5
805,252	31,77
805,556	32,02
805,861	32,2
806,166	32,11
806,471	32,07
806,775	32,17
807,08	32,1
807,384	32,16
807,689	32,19
807,993	32,27
808,298	32,5
808,602	32,69
808,906	32,74
809,211	32,77
809,515	32,93
809,819	33,27
810,123	33,71
810,427	34,11
810,731	34,45
811,035	34,82
811,338	35,17
811,642	35,39
811,946	35,37
812,25	35,43
812,553	35,75
812,857	35,94
813,16	35,96
813,464	36,07
813,767	36,04
814,07	35,93
814,374	35,99
814,677	35,9
814,98	35,86
815,283	35,66
815,586	35,53
815,889	35,33
816,192	35,04
816,495	34,74
816,798	34,38
817,101	34
817,404	33,51
817,706	33,12
818,009	32,51
818,312	31,67
818,614	30,56
818,917	28,9
819,219	26,94
819,521	25,06
819,824	23,54
820,126	22,31
820,428	21,55
820,73	21,1
821,032	20,6
821,334	20,21
821,636	19,93
821,938	19,83
822,24	19,7
822,542	19,61
822,844	19,58
823,145	19,52
823,447	19,48
823,749	19,41
824,05	19,37
824,352	19,3
824,653	19,3
824,955	19,28
825,256	19,34
825,557	19,52
825,858	19,79
826,16	20,1
826,461	20,56
826,762	21,01
827,063	21,32
827,364	21,86
827,665	22,31
827,965	22,82
828,266	23,13
828,567	23,51
828,868	23,78
829,168	24,03
829,469	24,4
829,769	24,65
830,07	24,88
830,37	25,11
830,67	25,46
830,971	25,73
831,271	26,09
831,571	26,42
831,871	26,67
832,171	26,82
832,471	26,99
832,771	27
833,071	27,06
833,371	27,27
833,671	27,26
833,971	27,57
834,27	27,73
834,57	27,85
834,869	28
835,169	28,07
835,468	28,13
835,768	28,11
836,067	28,18
836,367	28,62
836,666	28,95
836,965	29,45
837,264	30,08
837,563	30,75
837,862	31,43
838,161	32,11
838,46	33,05
838,759	33,94
839,058	34,76
839,356	35,41
839,655	35,8
839,954	36,32
840,252	36,7
840,551	37,37
840,849	38,26
841,148	38,79
841,446	39,48
841,744	39,6
842,043	39,82
842,341	40,02
842,639	40,01
842,937	40,2
843,235	40,52
843,533	40,66
843,831	41,13
844,129	42,46
844,427	43,73
844,724	44,91
845,022	46,12
845,32	47,75
845,617	48,49
845,915	49,4
846,212	49,95
846,51	50,68
846,807	50,76
847,104	50,25
847,402	50,07
847,699	50,48
847,996	51,1
848,293	51,22
848,59	51,68
848,887	52,15
849,184	52,22
849,481	52,45
849,778	52,97
850,074	53,56
850,371	53,37
850,668	53,14
850,964	52,47
851,261	51,7
851,557	51,55
851,854	52,63
852,15	53,19
852,446	54,09
852,743	54,46
853,039	55,15
853,335	56,1
853,631	56,83
853,927	56,93
854,223	56,82
854,519	57,42
854,815	57,43
855,111	56,89
855,406	57,12
855,702	57,05
855,998	57,1
856,293	57,45
856,589	57,58
856,884	57,33
857,18	57,46
857,475	57,92
857,77	57,57
858,066	56,95
858,361	56,47
858,656	56,08
858,951	55,9
859,246	55,94
859,541	55,19
859,836	54,55
860,131	54,45
860,426	54,95
860,72	54,99
861,015	55,42
861,31	56,11
861,604	56,45
861,899	57,14
862,193	57,56
862,487	56,82
862,782	56,45
863,076	56,77
863,37	57,17
863,664	57,71
863,959	58,17
864,253	58,29
864,547	59,07
864,841	59,68
865,135	59,93
865,428	59,65
865,722	60,37
866,016	61,26
866,31	61,43
866,603	60,84
866,897	60,58
867,19	60,15
867,484	59,81
867,777	59,94
868,07	59,51
868,364	58,93
868,657	59
868,95	59,17
869,243	58,9
869,536	58,27
869,829	57,45
870,122	56,51
870,415	56
870,708	55,72
871	55,27
871,293	54,91
871,586	54,69
871,878	54,46
872,171	53,69
872,463	53,31
872,756	53,09
873,048	52,55
873,341	52,4
873,633	52,19
873,925	51,74
874,217	51,46
874,509	51,63
874,801	51,76
875,093	51,3
875,385	51,21
875,677	51,39
875,969	51,77
