Data from zc74010_4_Reflection_00005.txt Node
Date: Thu Mar 12 15:01:30 ART 2020
User: Ana
Spectrometer: USB2E3644
Trigger mode: 4
Integration Time (sec): 5,000000E-2
Scans to average: 10
Electric dark correction enabled: true
Nonlinearity correction enabled: false
Boxcar width: 10
XAxis mode: Wavelengths
Number of Pixels in Spectrum: 2048
>>>>>Begin Spectral Data<<<<<
178,315	82,85
178,696	86,05
179,076	93,33
179,457	87,65
179,838	97,14
180,218	137,78
180,599	833,33
180,979	45,16
181,36	308,33
181,74	170,37
182,121	132,5
182,501	109,87
182,881	104,28
183,262	96,46
183,642	93,1
184,022	91,55
184,402	90,16
184,783	89,82
185,163	88,11
185,543	90,75
185,923	94,16
186,303	96,5
186,683	98,19
187,063	103,85
187,443	109,5
187,823	113,47
188,203	115,02
188,583	116,41
188,963	114,67
189,343	112,5
189,723	112,67
190,102	115,78
190,482	120,11
190,862	122,05
191,242	124,3
191,621	125,36
192,001	126,46
192,38	126,72
192,76	126,62
193,14	127,2
193,519	126,75
193,898	126,46
194,278	127,4
194,657	128,31
195,037	125,63
195,416	120,3
195,795	118,27
196,175	118,29
196,554	117,83
196,933	117,35
197,312	117,73
197,692	117,75
198,071	117,27
198,45	117,41
198,829	118,61
199,208	120
199,587	119,98
199,966	119,41
200,345	118,77
200,724	118,49
201,103	118,22
201,482	118,06
201,86	117,63
202,239	115,52
202,618	114,4
202,997	114,91
203,375	116,65
203,754	117,53
204,133	118,39
204,511	119,01
204,89	119,18
205,269	119,52
205,647	119,82
206,026	119,58
206,404	120
206,782	119,92
207,161	119,84
207,539	120,12
207,918	121,34
208,296	123,78
208,674	125,4
209,052	127,28
209,431	129,58
209,809	131,12
210,187	133,23
210,565	134,37
210,943	134,98
211,321	135,23
211,699	136,5
212,077	137,18
212,455	136,81
212,833	137,58
213,211	137,31
213,589	137,79
213,967	138,23
214,345	137,68
214,722	137,93
215,1	137,17
215,478	136,25
215,855	136,17
216,233	135,49
216,611	135,15
216,988	133,41
217,366	130,5
217,743	129,42
218,121	129,8
218,498	130,72
218,876	130,18
219,253	128,29
219,631	125,85
220,008	123,82
220,385	123,73
220,762	123,26
221,14	122,58
221,517	121,53
221,894	120,86
222,271	119,98
222,648	118,7
223,025	118,2
223,402	118,63
223,78	119
224,157	119,15
224,533	119,19
224,91	120,99
225,287	124,25
225,664	126,95
226,041	128
226,418	127,98
226,795	128,71
227,171	130,42
227,548	132,66
227,925	134,55
228,301	136,32
228,678	138,91
229,055	141,37
229,431	143,41
229,808	145,45
230,184	147,14
230,561	149,7
230,937	152,92
231,313	154,94
231,69	155,56
232,066	157,36
232,442	159,55
232,819	160,07
233,195	159,33
233,571	159,07
233,947	160,7
234,323	162,58
234,699	163,31
235,075	163,74
235,451	165,02
235,827	167,01
236,203	168,13
236,579	169,41
236,955	173,92
237,331	182,16
237,707	193,91
238,083	207,99
238,459	224,23
238,834	251,25
239,21	295,66
239,586	354,85
239,961	419,74
240,337	489,23
240,713	553,71
241,088	627,86
241,464	722,86
241,839	853,33
242,215	1136,84
242,59	2685,71
242,965	-1663,75
243,341	-473,5
243,716	-256,05
244,091	-182,97
244,467	-150,62
244,842	-131,14
245,217	-117,96
245,592	-110,66
245,967	-109,06
246,343	-106,22
246,718	-104,55
247,093	-107,41
247,468	-111,13
247,843	-111,36
248,218	-107,59
248,593	-100,08
248,967	-91,74
249,342	-86,8
249,717	-83,37
250,092	-81,63
250,467	-82
250,841	-86,6
251,216	-99,12
251,591	-119,94
251,965	-143,69
252,34	-162,75
252,714	-184,06
253,089	-200
253,463	-210,41
253,838	-209,09
254,212	-204,02
254,587	-193,17
254,961	-170,75
255,335	-145,31
255,71	-119,96
256,084	-92,59
256,458	-72,99
256,832	-61,55
257,206	-55,14
257,581	-52,18
257,955	-50,22
258,329	-48,16
258,703	-45,86
259,077	-43,86
259,451	-41,88
259,825	-41,03
260,199	-40,83
260,572	-39,98
260,946	-39,84
261,32	-39,62
261,694	-38,88
262,068	-38,42
262,441	-37,99
262,815	-37,56
263,189	-36,81
263,562	-37,1
263,936	-39,45
264,309	-43,55
264,683	-48,14
265,056	-50,8
265,43	-51,92
265,803	-52,35
266,176	-52,37
266,55	-52,64
266,923	-52,15
267,296	-51,25
267,67	-49,28
268,043	-47,32
268,416	-44,78
268,789	-42
269,162	-39,29
269,535	-37,03
269,908	-35,09
270,281	-33,99
270,654	-33,72
271,027	-34
271,4	-34,11
271,773	-34,07
272,146	-33,95
272,519	-33,94
272,891	-33,91
273,264	-33,76
273,637	-33,3
274,01	-33,01
274,382	-33,13
274,755	-33,24
275,127	-33,44
275,5	-33,71
275,872	-33,65
276,245	-33,77
276,617	-34,51
276,99	-35,2
277,362	-36,16
277,734	-36,83
278,107	-36,72
278,479	-36,46
278,851	-36,1
279,223	-35,49
279,596	-34,89
279,968	-34,78
280,34	-34,27
280,712	-33,61
281,084	-32,41
281,456	-30,98
281,828	-29,27
282,2	-27,01
282,572	-25,22
282,944	-23,81
283,315	-22,87
283,687	-22,2
284,059	-21,95
284,431	-21,59
284,802	-20,93
285,174	-20,26
285,546	-19,78
285,917	-19,18
286,289	-18,64
286,66	-18,27
287,032	-17,96
287,403	-17,75
287,775	-17,52
288,146	-17,5
288,518	-17,49
288,889	-17,26
289,26	-17,24
289,632	-17,67
290,003	-18,32
290,374	-18,66
290,745	-18,95
291,116	-19
291,487	-19,05
291,858	-18,81
292,229	-18,38
292,6	-18,01
292,971	-17,33
293,342	-16,43
293,713	-15,59
294,084	-14,87
294,455	-13,93
294,826	-13,13
295,196	-12,71
295,567	-12,63
295,938	-12,22
296,308	-11,84
296,679	-11,62
297,05	-11,29
297,42	-10,77
297,791	-10,19
298,161	-9,93
298,532	-9,54
298,902	-9,14
299,272	-8,73
299,643	-8,37
300,013	-7,94
300,383	-7,72
300,754	-7,65
301,124	-7,76
301,494	-7,91
301,864	-8,03
302,234	-8,33
302,604	-8,56
302,974	-8,5
303,344	-8,01
303,714	-7,53
304,084	-7,15
304,454	-7
304,824	-6,93
305,194	-6,9
305,563	-6,85
305,933	-6,55
306,303	-6,19
306,673	-5,82
307,042	-5,42
307,412	-4,87
307,781	-4,3
308,151	-3,84
308,521	-3,55
308,89	-3,23
309,259	-3,11
309,629	-2,99
309,998	-2,87
310,368	-2,8
310,737	-2,65
311,106	-2,53
311,475	-2,43
311,845	-2,4
312,214	-2,25
312,583	-2,06
312,952	-2,03
313,321	-1,96
313,69	-1,69
314,059	-1,53
314,428	-1,54
314,797	-1,63
315,166	-1,89
315,535	-2,21
315,904	-2,54
316,272	-2,72
316,641	-2,89
317,01	-2,76
317,379	-2,49
317,747	-2,15
318,116	-1,7
318,484	-1,39
318,853	-1,15
319,221	-0,98
319,59	-0,82
319,958	-0,53
320,327	-0,3
320,695	0,08
321,063	0,58
321,432	0,92
321,8	1,31
322,168	1,64
322,536	1,83
322,905	2,14
323,273	2,5
323,641	2,96
324,009	3,41
324,377	3,72
324,745	4,05
325,113	4,42
325,481	4,8
325,849	5,03
326,216	5,34
326,584	5,63
326,952	5,89
327,32	6,18
327,687	6,42
328,055	6,74
328,423	6,96
328,79	6,93
329,158	6,88
329,525	6,78
329,893	6,85
330,26	7,15
330,628	7,49
330,995	7,75
331,362	7,96
331,73	8,11
332,097	8,36
332,464	8,59
332,831	8,77
333,199	8,82
333,566	8,99
333,933	9,16
334,3	9,35
334,667	9,51
335,034	9,68
335,401	9,84
335,768	9,98
336,135	10,12
336,502	10,37
336,868	10,6
337,235	10,82
337,602	10,98
337,969	11,18
338,335	11,3
338,702	11,52
339,069	11,71
339,435	11,85
339,802	12,02
340,168	12,19
340,535	12,24
340,901	12,26
341,267	12,25
341,634	12,36
342	12,53
342,366	12,72
342,733	12,89
343,099	13,08
343,465	13,25
343,831	13,4
344,197	13,63
344,563	13,79
344,929	13,96
345,295	14,24
345,661	14,41
346,027	14,52
346,393	14,56
346,759	14,63
347,125	14,74
347,491	14,77
347,856	14,77
348,222	14,82
348,588	14,98
348,953	15,15
349,319	15,16
349,684	15,22
350,05	15,31
350,415	15,44
350,781	15,52
351,146	15,56
351,512	15,63
351,877	15,63
352,242	15,7
352,608	15,8
352,973	15,84
353,338	15,94
353,703	16,11
354,068	16,22
354,433	16,32
354,798	16,46
355,164	16,66
355,528	16,8
355,893	16,99
356,258	17,1
356,623	17,27
356,988	17,47
357,353	17,58
357,718	17,7
358,082	17,75
358,447	17,84
358,812	18,01
359,176	18,18
359,541	18,34
359,905	18,44
360,27	18,53
360,634	18,61
360,999	18,72
361,363	18,83
361,728	18,98
362,092	19,08
362,456	19,1
362,821	19,17
363,185	19,28
363,549	19,36
363,913	19,44
364,277	19,45
364,641	19,48
365,005	19,59
365,369	19,67
365,733	19,74
366,097	19,86
366,461	19,96
366,825	20,09
367,189	20,15
367,553	20,25
367,916	20,37
368,28	20,45
368,644	20,52
369,007	20,54
369,371	20,65
369,734	20,8
370,098	20,95
370,461	21,06
370,825	21,11
371,188	21,2
371,552	21,4
371,915	21,55
372,278	21,72
372,642	21,78
373,005	21,87
373,368	22
373,731	22,12
374,094	22,26
374,457	22,34
374,82	22,48
375,183	22,6
375,546	22,69
375,909	22,86
376,272	23,01
376,635	23,18
376,998	23,25
377,361	23,3
377,723	23,4
378,086	23,5
378,449	23,59
378,811	23,73
379,174	23,78
379,537	23,82
379,899	23,87
380,262	23,96
380,624	24,01
380,987	24,11
381,349	24,21
381,711	24,26
382,074	24,31
382,436	24,38
382,798	24,54
383,16	24,61
383,522	24,65
383,884	24,66
384,247	24,74
384,609	24,82
384,971	24,87
385,333	24,88
385,695	24,88
386,056	24,98
386,418	24,97
386,78	24,99
387,142	25,04
387,504	25,06
387,865	25,14
388,227	25,17
388,589	25,23
388,95	25,2
389,312	25,21
389,673	25,26
390,035	25,29
390,396	25,3
390,758	25,32
391,119	25,35
391,48	25,37
391,842	25,38
392,203	25,36
392,564	25,4
392,925	25,46
393,286	25,54
393,648	25,57
394,009	25,64
394,37	25,72
394,731	25,79
395,092	25,85
395,452	25,88
395,813	25,95
396,174	25,93
396,535	25,96
396,896	25,95
397,257	26,01
397,617	26,06
397,978	26,06
398,338	26,1
398,699	26,15
399,06	26,3
399,42	26,34
399,781	26,38
400,141	26,43
400,501	26,49
400,862	26,54
401,222	26,54
401,582	26,54
401,943	26,54
402,303	26,53
402,663	26,55
403,023	26,53
403,383	26,58
403,743	26,66
404,103	26,72
404,463	26,77
404,823	26,76
405,183	26,79
405,543	26,83
405,903	26,87
406,262	26,87
406,622	26,83
406,982	26,82
407,342	26,9
407,701	26,92
408,061	26,91
408,42	26,89
408,78	26,95
409,139	27
409,499	27,03
409,858	27,08
410,217	27,15
410,577	27,19
410,936	27,19
411,295	27,2
411,655	27,2
412,014	27,22
412,373	27,25
412,732	27,25
413,091	27,21
413,45	27,25
413,809	27,31
414,168	27,27
414,527	27,27
414,886	27,26
415,245	27,25
415,603	27,26
415,962	27,26
416,321	27,24
416,679	27,22
417,038	27,21
417,397	27,17
417,755	27,13
418,114	27,15
418,472	27,14
418,831	27,15
419,189	27,17
419,547	27,19
419,906	27,19
420,264	27,15
420,622	27,17
420,981	27,17
421,339	27,14
421,697	27,16
422,055	27,19
422,413	27,2
422,771	27,22
423,129	27,24
423,487	27,26
423,845	27,3
424,203	27,32
424,56	27,35
424,918	27,41
425,276	27,48
425,634	27,52
425,991	27,58
426,349	27,63
426,707	27,63
427,064	27,67
427,422	27,7
427,779	27,82
428,137	27,83
428,494	27,91
428,851	27,98
429,209	28,03
429,566	28,04
429,923	28,06
430,28	28,06
430,637	28,08
430,995	28,06
431,352	28,08
431,709	28,1
432,066	28,12
432,423	28,14
432,78	28,15
433,137	28,14
433,493	28,14
433,85	28,19
434,207	28,22
434,564	28,22
434,92	28,24
435,277	28,26
435,634	28,29
435,99	28,26
436,347	28,25
436,703	28,29
437,06	28,31
437,416	28,36
437,773	28,39
438,129	28,38
438,485	28,42
438,841	28,43
439,198	28,45
439,554	28,45
439,91	28,47
440,266	28,48
440,622	28,51
440,978	28,52
441,334	28,49
441,69	28,5
442,046	28,51
442,402	28,5
442,758	28,49
443,113	28,49
443,469	28,5
443,825	28,53
444,181	28,52
444,536	28,55
444,892	28,53
445,247	28,55
445,603	28,59
445,958	28,64
446,314	28,65
446,669	28,64
447,025	28,66
447,38	28,66
447,735	28,67
448,09	28,68
448,446	28,67
448,801	28,68
449,156	28,7
449,511	28,72
449,866	28,78
450,221	28,83
450,576	28,91
450,931	28,99
451,286	29,04
451,641	29,11
451,995	29,13
452,35	29,19
452,705	29,22
453,06	29,2
453,414	29,18
453,769	29,2
454,123	29,23
454,478	29,23
454,832	29,25
455,187	29,21
455,541	29,21
455,896	29,25
456,25	29,27
456,604	29,28
456,958	29,27
457,313	29,25
457,667	29,25
458,021	29,22
458,375	29,22
458,729	29,25
459,083	29,26
459,437	29,26
459,791	29,27
460,145	29,28
460,499	29,32
460,852	29,31
461,206	29,33
461,56	29,35
461,914	29,38
462,267	29,41
462,621	29,46
462,974	29,51
463,328	29,53
463,681	29,54
464,035	29,57
464,388	29,59
464,742	29,64
465,095	29,65
465,448	29,69
465,801	29,69
466,155	29,7
466,508	29,71
466,861	29,72
467,214	29,71
467,567	29,73
467,92	29,7
468,273	29,73
468,626	29,73
468,979	29,71
469,332	29,71
469,684	29,69
470,037	29,68
470,39	29,66
470,743	29,69
471,095	29,71
471,448	29,73
471,8	29,78
472,153	29,79
472,505	29,82
472,858	29,81
473,21	29,84
473,562	29,84
473,915	29,84
474,267	29,85
474,619	29,87
474,971	29,86
475,324	29,88
475,676	29,9
476,028	29,91
476,38	29,92
476,732	29,91
477,084	29,92
477,436	29,93
477,787	29,93
478,139	29,93
478,491	29,95
478,843	29,94
479,195	29,93
479,546	29,91
479,898	29,93
480,249	30
480,601	30,08
480,952	30,11
481,304	30,14
481,655	30,14
482,007	30,13
482,358	30,12
482,709	30,12
483,061	30,11
483,412	30,11
483,763	30,11
484,114	30,1
484,465	30,1
484,816	30,1
485,167	30,11
485,518	30,11
485,869	30,11
486,22	30,12
486,571	30,12
486,922	30,13
487,272	30,11
487,623	30,09
487,974	30,04
488,324	30,01
488,675	29,98
489,025	29,97
489,376	29,99
489,726	30
490,077	30,01
490,427	30,02
490,778	30,02
491,128	30,04
491,478	30,07
491,828	30,08
492,179	30,11
492,529	30,13
492,879	30,14
493,229	30,17
493,579	30,19
493,929	30,2
494,279	30,23
494,629	30,27
494,979	30,29
495,328	30,31
495,678	30,35
496,028	30,42
496,378	30,44
496,727	30,43
497,077	30,47
497,426	30,47
497,776	30,49
498,125	30,49
498,475	30,5
498,824	30,52
499,174	30,51
499,523	30,51
499,872	30,53
500,221	30,55
500,571	30,53
500,92	30,52
501,269	30,54
501,618	30,53
501,967	30,54
502,316	30,57
502,665	30,6
503,014	30,6
503,363	30,62
503,711	30,65
504,06	30,69
504,409	30,69
504,758	30,72
505,106	30,73
505,455	30,75
505,803	30,76
506,152	30,74
506,5	30,78
506,849	30,8
507,197	30,77
507,546	30,77
507,894	30,79
508,242	30,81
508,59	30,82
508,939	30,84
509,287	30,84
509,635	30,83
509,983	30,81
510,331	30,83
510,679	30,83
511,027	30,84
511,375	30,83
511,723	30,84
512,07	30,86
512,418	30,89
512,766	30,89
513,114	30,91
513,461	30,96
513,809	30,96
514,156	30,96
514,504	30,98
514,851	30,99
515,199	30,97
515,546	30,98
515,893	30,94
516,241	30,95
516,588	30,95
516,935	30,97
517,282	30,98
517,63	31
517,977	31
518,324	31
518,671	31,03
519,018	31,04
519,365	31,05
519,711	31,04
520,058	31,07
520,405	31,07
520,752	31,06
521,099	31,05
521,445	31,07
521,792	31,06
522,138	31,09
522,485	31,11
522,832	31,13
523,178	31,14
523,524	31,15
523,871	31,16
524,217	31,15
524,563	31,18
524,91	31,16
525,256	31,18
525,602	31,2
525,948	31,2
526,294	31,2
526,64	31,19
526,986	31,18
527,332	31,16
527,678	31,17
528,024	31,18
528,37	31,2
528,716	31,18
529,061	31,2
529,407	31,18
529,753	31,19
530,098	31,19
530,444	31,2
530,789	31,22
531,135	31,21
531,48	31,21
531,826	31,21
532,171	31,25
532,516	31,23
532,862	31,21
533,207	31,21
533,552	31,22
533,897	31,22
534,242	31,24
534,587	31,25
534,932	31,25
535,277	31,27
535,622	31,29
535,967	31,32
536,312	31,34
536,657	31,37
537,001	31,38
537,346	31,38
537,691	31,41
538,035	31,4
538,38	31,42
538,724	31,46
539,069	31,45
539,413	31,45
539,758	31,46
540,102	31,48
540,446	31,48
540,791	31,48
541,135	31,49
541,479	31,51
541,823	31,55
542,167	31,55
542,512	31,53
542,856	31,5
543,2	31,51
543,543	31,51
543,887	31,52
544,231	31,54
544,575	31,56
544,919	31,56
545,262	31,59
545,606	31,61
545,95	31,59
546,293	31,6
546,637	31,6
546,98	31,6
547,324	31,6
547,667	31,63
548,011	31,64
548,354	31,65
548,697	31,64
549,04	31,62
549,384	31,6
549,727	31,61
550,07	31,64
550,413	31,62
550,756	31,62
551,099	31,64
551,442	31,64
551,785	31,66
552,128	31,68
552,47	31,66
552,813	31,68
553,156	31,69
553,499	31,69
553,841	31,72
554,184	31,76
554,526	31,75
554,869	31,75
555,211	31,76
555,554	31,75
555,896	31,76
556,238	31,75
556,581	31,76
556,923	31,77
557,265	31,73
557,607	31,73
557,949	31,72
558,291	31,68
558,633	31,65
558,975	31,62
559,317	31,59
559,659	31,58
560,001	31,55
560,343	31,53
560,685	31,54
561,026	31,51
561,368	31,48
561,71	31,46
562,051	31,45
562,393	31,46
562,734	31,44
563,076	31,4
563,417	31,41
563,759	31,41
564,1	31,44
564,441	31,46
564,782	31,42
565,124	31,37
565,465	31,37
565,806	31,33
566,147	31,35
566,488	31,36
566,829	31,35
567,17	31,35
567,511	31,34
567,851	31,34
568,192	31,34
568,533	31,34
568,874	31,37
569,214	31,39
569,555	31,35
569,895	31,34
570,236	31,37
570,576	31,34
570,917	31,33
571,257	31,3
571,598	31,3
571,938	31,35
572,278	31,37
572,618	31,38
572,959	31,42
573,299	31,41
573,639	31,4
573,979	31,42
574,319	31,41
574,659	31,41
574,999	31,41
575,339	31,39
575,678	31,39
576,018	31,37
576,358	31,35
576,698	31,36
577,037	31,4
577,377	31,36
577,716	31,35
578,056	31,35
578,395	31,32
578,735	31,31
579,074	31,3
579,413	31,28
579,753	31,31
580,092	31,26
580,431	31,22
580,77	31,23
581,109	31,18
581,448	31,14
581,787	31,13
582,126	31,12
582,465	31,13
582,804	31,14
583,143	31,15
583,482	31,14
583,82	31,14
584,159	31,13
584,498	31,15
584,836	31,16
585,175	31,14
585,514	31,16
585,852	31,17
586,19	31,15
586,529	31,16
586,867	31,11
587,205	31,13
587,544	31,12
587,882	31,08
588,22	31,12
588,558	31,16
588,896	31,15
589,234	31,12
589,572	31,11
589,91	31,08
590,248	31,08
590,586	31,05
590,924	31,05
591,262	31,04
591,599	31,04
591,937	31,03
592,275	31,05
592,612	31,09
592,95	31,11
593,287	31,13
593,625	31,13
593,962	31,15
594,299	31,14
594,637	31,2
594,974	31,26
595,311	31,25
595,648	31,23
595,985	31,24
596,322	31,27
596,659	31,26
596,996	31,27
597,333	31,25
597,67	31,28
598,007	31,26
598,344	31,23
598,681	31,24
599,017	31,27
599,354	31,27
599,691	31,23
600,027	31,22
600,364	31,22
600,7	31,25
601,037	31,28
601,373	31,32
601,71	31,37
602,046	31,36
602,382	31,35
602,718	31,37
603,054	31,39
603,391	31,4
603,727	31,41
604,063	31,43
604,399	31,43
604,735	31,46
605,071	31,49
605,406	31,51
605,742	31,54
606,078	31,52
606,414	31,5
606,749	31,54
607,085	31,55
607,421	31,56
607,756	31,55
608,092	31,48
608,427	31,46
608,762	31,42
609,098	31,41
609,433	31,41
609,768	31,41
610,104	31,37
610,439	31,29
610,774	31,33
611,109	31,32
611,444	31,28
611,779	31,23
612,114	31,2
612,449	31,23
612,784	31,18
613,118	31,18
613,453	31,19
613,788	31,11
614,123	31,04
614,457	31,03
614,792	30,99
615,126	31,08
615,461	31,09
615,795	31,08
616,13	31,03
616,464	31,04
616,798	30,99
617,132	31,03
617,467	31,09
617,801	31,06
618,135	31,05
618,469	31,11
618,803	31,11
619,137	31,14
619,471	31,07
619,805	31,03
620,139	31,04
620,472	31,06
620,806	31,07
621,14	31,09
621,473	31,08
621,807	31,08
622,141	31,02
622,474	30,98
622,808	30,97
623,141	31,01
623,474	31
623,808	31,07
624,141	31,11
624,474	31,19
624,807	31,18
625,141	31,18
625,474	31,2
625,807	31,23
626,14	31,21
626,473	31,26
626,806	31,29
627,138	31,3
627,471	31,27
627,804	31,29
628,137	31,34
628,469	31,32
628,802	31,34
629,135	31,32
629,467	31,33
629,8	31,33
630,132	31,35
630,465	31,38
630,797	31,38
631,129	31,37
631,461	31,28
631,794	31,29
632,126	31,29
632,458	31,26
632,79	31,28
633,122	31,28
633,454	31,3
633,786	31,28
634,118	31,24
634,45	31,28
634,781	31,26
635,113	31,23
635,445	31,25
635,777	31,25
636,108	31,31
636,44	31,35
636,771	31,35
637,103	31,32
637,434	31,26
637,765	31,21
638,097	31,21
638,428	31,19
638,759	31,15
639,09	31,17
639,422	31,2
639,753	31,16
640,084	31,15
640,415	31,1
640,746	31,12
641,077	31,13
641,407	31,08
641,738	31,11
642,069	31,05
642,4	31,08
642,73	31,03
643,061	30,99
643,392	30,94
643,722	30,99
644,053	31,04
644,383	31,06
644,713	31,14
645,044	31,1
645,374	31,15
645,704	31,2
646,034	31,22
646,365	31,21
646,695	31,23
647,025	31,29
647,355	31,32
647,685	31,31
648,015	31,34
648,344	31,33
648,674	31,33
649,004	31,4
649,334	31,41
649,663	31,48
649,993	31,55
650,323	31,59
650,652	31,54
650,982	31,54
651,311	31,53
651,64	31,54
651,97	31,56
652,299	31,6
652,628	31,61
652,958	31,59
653,287	31,63
653,616	31,66
653,945	31,69
654,274	31,66
654,603	31,63
654,932	31,62
655,261	31,73
655,589	31,76
655,918	31,78
656,247	31,74
656,576	31,7
656,904	31,68
657,233	31,7
657,561	31,73
657,89	31,75
658,218	31,82
658,547	31,79
658,875	31,82
659,203	31,84
659,532	31,85
659,86	31,88
660,188	31,82
660,516	31,84
660,844	31,78
661,172	31,84
661,5	31,87
661,828	31,86
662,156	31,82
662,484	31,83
662,811	31,82
663,139	31,83
663,467	31,8
663,794	31,81
664,122	31,8
664,45	31,77
664,777	31,74
665,104	31,77
665,432	31,74
665,759	31,7
666,086	31,66
666,414	31,61
666,741	31,61
667,068	31,62
667,395	31,64
667,722	31,73
668,049	31,71
668,376	31,74
668,703	31,72
669,03	31,71
669,357	31,69
669,683	31,66
670,01	31,66
670,337	31,72
670,663	31,66
670,99	31,63
671,317	31,64
671,643	31,61
671,969	31,57
672,296	31,63
672,622	31,69
672,948	31,68
673,275	31,66
673,601	31,66
673,927	31,63
674,253	31,58
674,579	31,52
674,905	31,5
675,231	31,5
675,557	31,53
675,883	31,56
676,209	31,54
676,534	31,57
676,86	31,61
677,186	31,68
677,511	31,75
677,837	31,8
678,162	31,85
678,488	31,88
678,813	31,92
679,139	31,9
679,464	31,88
679,789	31,93
680,114	31,99
680,44	31,99
680,765	32,06
681,09	32,04
681,415	32,05
681,74	32,03
682,065	32,03
682,39	32,06
682,714	32,07
683,039	32,06
683,364	32,04
683,689	31,99
684,013	31,95
684,338	31,83
684,662	31,81
684,987	31,76
685,311	31,77
685,636	31,7
685,96	31,66
686,284	31,64
686,608	31,6
686,933	31,52
687,257	31,46
687,581	31,46
687,905	31,48
688,229	31,41
688,553	31,45
688,877	31,42
689,201	31,44
689,524	31,44
689,848	31,53
690,172	31,56
690,496	31,58
690,819	31,58
691,143	31,68
691,466	31,67
691,79	31,71
692,113	31,76
692,436	31,79
692,76	31,77
693,083	31,72
693,406	31,69
693,729	31,77
694,053	31,83
694,376	31,81
694,699	31,76
695,022	31,88
695,344	31,88
695,667	32,02
695,99	32,09
696,313	32,11
696,636	32,06
696,958	32,01
697,281	32,08
697,604	32,12
697,926	32,13
698,249	32,18
698,571	32,2
698,893	32,15
699,216	32,09
699,538	32,11
699,86	32,15
700,182	32,18
700,504	32,15
700,827	32,12
701,149	32,07
701,471	32,06
701,793	32,03
702,114	32,07
702,436	31,9
702,758	31,73
703,08	31,67
703,401	31,63
703,723	31,6
704,045	31,51
704,366	31,48
704,688	31,43
705,009	31,21
705,331	31,18
705,652	31,24
705,973	31,28
706,294	31,31
706,616	31,26
706,937	31,25
707,258	31,26
707,579	31,24
707,9	31,31
708,221	31,41
708,542	31,44
708,863	31,44
709,183	31,5
709,504	31,55
709,825	31,6
710,145	31,6
710,466	31,69
710,787	31,7
711,107	31,72
711,427	31,66
711,748	31,85
712,068	31,86
712,388	31,81
712,709	31,87
713,029	31,88
713,349	31,9
713,669	31,93
713,989	31,96
714,309	32,06
714,629	32,02
714,949	32
715,269	32
715,589	31,98
715,908	31,93
716,228	31,99
716,548	31,99
716,867	32,07
717,187	32,09
717,506	32,17
717,826	32,18
718,145	32,27
718,465	32,3
718,784	32,27
719,103	32,24
719,422	32,28
719,741	32,29
720,061	32,44
720,38	32,53
720,699	32,57
721,018	32,63
721,336	32,83
721,655	32,97
721,974	33,02
722,293	33,15
722,612	33,23
722,93	33,25
723,249	33,24
723,567	33,24
723,886	33,31
724,204	33,34
724,523	33,42
724,841	33,59
725,159	33,69
725,477	33,9
725,796	34,15
726,114	34,32
726,432	34,39
726,75	34,37
727,068	34,46
727,386	34,63
727,704	34,67
728,022	34,75
728,339	34,76
728,657	34,77
728,975	34,78
729,292	34,87
729,61	34,97
729,928	35,14
730,245	35,22
730,562	35,29
730,88	35,41
731,197	35,5
731,514	35,52
731,832	35,6
732,149	35,62
732,466	35,68
732,783	35,74
733,1	35,93
733,417	36,06
733,734	36,14
734,051	36,16
734,368	36,25
734,684	36,3
735,001	36,38
735,318	36,49
735,634	36,58
735,951	36,76
736,268	36,83
736,584	36,85
736,9	36,97
737,217	37,03
737,533	37,09
737,849	37,23
738,166	37,29
738,482	37,3
738,798	37,36
739,114	37,33
739,43	37,31
739,746	37,29
740,062	37,3
740,378	37,32
740,693	37,39
741,009	37,51
741,325	37,59
741,641	37,69
741,956	37,75
742,272	37,85
742,587	37,8
742,903	37,8
743,218	37,83
743,533	37,94
743,849	38,06
744,164	38,09
744,479	38,02
744,794	38,06
745,109	38,07
745,424	38,1
745,739	38,08
746,054	38,19
746,369	38,17
746,684	38,29
746,999	38,38
747,313	38,31
747,628	38,35
747,943	38,31
748,257	38,41
748,572	38,54
748,886	38,56
749,201	38,65
749,515	38,79
749,829	38,81
750,144	38,87
750,458	38,84
750,772	38,87
751,086	38,97
751,4	39,21
751,714	39,32
752,028	39,5
752,342	39,7
752,656	39,69
752,97	39,85
753,284	39,93
753,597	40,05
753,911	40,29
754,225	40,39
754,538	40,46
754,852	40,41
755,165	40,57
755,478	40,6
755,792	40,62
756,105	40,72
756,418	40,84
756,731	40,89
757,045	40,97
757,358	40,99
757,671	41,01
757,984	40,96
758,297	40,98
758,609	40,92
758,922	40,79
759,235	40,9
759,548	40,9
759,86	40,77
760,173	40,52
760,486	40,37
760,798	40,24
761,111	40,17
761,423	40,14
761,735	40
762,048	40,01
762,36	40,11
762,672	40,09
762,984	40,19
763,296	40,24
763,608	40,33
763,92	40,43
764,232	40,43
764,544	40,43
764,856	40,46
765,168	40,59
765,48	40,79
765,791	40,83
766,103	41,05
766,414	41,29
766,726	41,59
767,037	41,83
767,349	42,11
767,66	42,45
767,972	42,84
768,283	43,16
768,594	43,44
768,905	43,52
769,216	43,77
769,527	43,9
769,838	43,92
770,149	43,98
770,46	44,11
770,771	44,3
771,082	44,49
771,393	44,77
771,703	44,69
772,014	44,84
772,324	44,88
772,635	44,7
772,945	44,56
773,256	44,58
773,566	44,55
773,877	44,45
774,187	44,37
774,497	44,31
774,807	44,34
775,117	44,37
775,427	44,54
775,737	44,75
776,047	44,99
776,357	45,16
776,667	45,22
776,977	45,42
777,287	45,7
777,596	45,86
777,906	45,77
778,216	45,82
778,525	45,9
778,835	46,03
779,144	46,38
779,453	46,77
779,763	47,03
780,072	47,27
780,381	47,46
780,69	47,68
781	47,75
781,309	47,97
781,618	48,08
781,927	48,19
782,235	48,07
782,544	48,13
782,853	48,39
783,162	48,62
783,471	48,61
783,779	48,65
784,088	48,58
784,396	48,68
784,705	48,79
785,013	48,51
785,322	48,31
785,63	48,17
785,938	47,89
786,246	47,85
786,554	47,71
786,863	47,67
787,171	47,63
787,479	47,92
787,787	48,01
788,094	48,06
788,402	47,96
788,71	48,03
789,018	48,03
789,326	48
789,633	47,9
789,941	48,01
790,248	47,94
790,556	48,09
790,863	48,28
791,171	48,37
791,478	48,7
791,785	48,99
792,092	48,89
792,399	48,97
792,707	48,9
793,014	49,03
793,321	49,3
793,628	49,4
793,934	49,22
794,241	49,14
794,548	49,14
794,855	49,21
795,161	49,27
795,468	49,13
795,775	49,01
796,081	49,06
796,388	48,9
796,694	48,98
797	48,79
797,307	48,66
797,613	48,65
797,919	48,65
798,225	48,73
798,531	49,04
798,837	49,26
799,143	49,37
799,449	49,3
799,755	49,39
800,061	49,62
800,367	49,82
800,672	49,99
800,978	50,2
801,284	50,43
801,589	50,39
801,895	50,57
802,2	50,73
802,506	50,82
802,811	50,93
803,116	50,97
803,421	51,09
803,727	51
804,032	50,99
804,337	50,95
804,642	50,9
804,947	50,89
805,252	50,81
805,556	50,9
805,861	51,25
806,166	51,31
806,471	51,12
806,775	50,88
807,08	50,68
807,384	50,42
807,689	50,32
807,993	50,4
808,298	50,22
808,602	50,16
808,906	50,36
809,211	50,53
809,515	50,79
809,819	50,99
810,123	51,25
810,427	51,55
810,731	51,6
811,035	51,67
811,338	51,58
811,642	51,74
811,946	51,8
812,25	51,74
812,553	51,67
812,857	51,9
813,16	52,11
813,464	52,16
813,767	52,34
814,07	52,53
814,374	52,79
814,677	53,32
814,98	53,39
815,283	53,27
815,586	53,04
815,889	52,55
816,192	52,25
816,495	52,29
816,798	52,25
817,101	52,31
817,404	51,94
817,706	51,65
818,009	51,02
818,312	50,2
818,614	49,08
818,917	47,55
819,219	45,9
819,521	44,41
819,824	43,27
820,126	42,29
820,428	41,57
820,73	41,08
821,032	40,74
821,334	40,57
821,636	40,4
821,938	40,33
822,24	40,3
822,542	40,26
822,844	40,2
823,145	40,11
823,447	40,06
823,749	40,06
824,05	39,97
824,352	39,95
824,653	39,99
824,955	40,03
825,256	40,18
825,557	40,37
825,858	40,76
826,16	41,1
826,461	41,55
826,762	42,06
827,063	42,54
827,364	42,95
827,665	43,38
827,965	43,76
828,266	44,05
828,567	44,31
828,868	44,49
829,168	44,69
829,469	44,9
829,769	45,06
830,07	45,38
830,37	45,76
830,67	45,95
830,971	45,99
831,271	46,28
831,571	46,29
831,871	46,26
832,171	45,99
832,471	46,07
832,771	46,16
833,071	46,02
833,371	46,02
833,671	46,09
833,971	46,17
834,27	46,25
834,57	46,51
834,869	46,78
835,169	47,13
835,468	47,39
835,768	47,64
836,067	47,98
836,367	48,13
836,666	48,4
836,965	48,91
837,264	49,7
837,563	50,54
837,862	51,55
838,161	52,64
838,46	53,65
838,759	54,28
839,058	55,09
839,356	56,04
839,655	56,81
839,954	57,2
840,252	57,37
840,551	57,99
840,849	58,4
841,148	58,74
841,446	58,94
841,744	58,86
842,043	58,6
842,341	58,15
842,639	57,96
842,937	58,24
843,235	58,44
843,533	58,57
843,831	58,6
844,129	59,06
844,427	59,51
844,724	59,34
845,022	59,47
845,32	59,39
845,617	59,48
845,915	59,21
846,212	59,63
846,51	60,41
846,807	60,57
847,104	60,53
847,402	60,92
847,699	61,55
847,996	62,16
848,293	63,05
848,59	64,1
848,887	64,4
849,184	63,87
849,481	63,7
849,778	63,25
850,074	63,68
850,371	63,72
850,668	63,41
850,964	63,31
851,261	63,58
851,557	63,79
851,854	63,81
852,15	63,99
852,446	64,22
852,743	64,71
853,039	65,74
853,335	66,36
853,631	66,07
853,927	65,92
854,223	65,95
854,519	65,51
854,815	65,21
855,111	65,49
855,406	65,98
855,702	66,56
855,998	67,71
856,293	68,36
856,589	69,35
856,884	70,45
857,18	71,37
857,475	71,85
857,77	72,3
858,066	72,63
858,361	72,83
858,656	72,84
858,951	71,97
859,246	71,19
859,541	70,04
859,836	69,48
860,131	68,83
860,426	68,46
860,72	68,86
861,015	68,78
861,31	68,85
861,604	69,04
861,899	69,21
862,193	69,24
862,487	69,57
862,782	68,99
863,076	68,48
863,37	68,25
863,664	68,23
863,959	68,22
864,253	68,1
864,547	68,17
864,841	68,12
865,135	68,52
865,428	68,17
865,722	68,85
866,016	69,49
866,31	69,57
866,603	69,95
866,897	70,02
867,19	70,09
867,484	70,42
867,777	70,4
868,07	70,58
868,364	70,49
868,657	69,52
868,95	69,08
869,243	68,59
869,536	68,07
869,829	67,83
870,122	67,89
870,415	67,77
870,708	68,26
871	68,03
871,293	67,88
871,586	67,99
871,878	67,58
872,171	67,88
872,463	69,2
872,756	69,56
873,048	69,25
873,341	69,04
873,633	68,56
873,925	68,57
874,217	68,04
874,509	67,56
874,801	67,29
875,093	67,4
875,385	67,92
875,677	68,87
875,969	69,17
