Data from zc74042_1_Reflection_00002.txt Node
Date: Thu Mar 12 14:48:33 ART 2020
User: Ana
Spectrometer: USB2E3644
Trigger mode: 4
Integration Time (sec): 5,000000E-2
Scans to average: 10
Electric dark correction enabled: true
Nonlinearity correction enabled: false
Boxcar width: 10
XAxis mode: Wavelengths
Number of Pixels in Spectrum: 2048
>>>>>Begin Spectral Data<<<<<
178,315	85,22
178,696	66,67
179,076	56,74
179,457	49,08
179,838	26,77
180,218	13,33
180,599	-116,67
180,979	17,86
181,36	13,57
181,74	64,66
182,121	99,65
182,501	104,24
182,881	93,4
183,262	92,46
183,642	95,27
184,022	99,93
184,402	108
184,783	111,68
185,163	108,45
185,543	106,51
185,923	107,51
186,303	108,54
186,683	106,54
187,063	106,32
187,443	107,07
187,823	105,37
188,203	107,22
188,583	111,3
188,963	116,49
189,343	119,96
189,723	119,52
190,102	117,53
190,482	119,28
190,862	121,9
191,242	122,45
191,621	119,33
192,001	118,58
192,38	117,54
192,76	117,79
193,14	119,64
193,519	120,79
193,898	120,17
194,278	118,97
194,657	117,66
195,037	118,1
195,416	119,25
195,795	119,92
196,175	119,43
196,554	117,2
196,933	114,59
197,312	113,89
197,692	113,26
198,071	113,18
198,45	111,76
198,829	111,18
199,208	111,46
199,587	112,51
199,966	112,45
200,345	111,6
200,724	110,91
201,103	110,24
201,482	109,58
201,86	110,45
202,239	112,23
202,618	112,55
202,997	111,63
203,375	110,05
203,754	109,95
204,133	109,74
204,511	109,33
204,89	108,76
205,269	108,09
205,647	108,4
206,026	108,34
206,404	108,8
206,782	108,04
207,161	106,59
207,539	105,55
207,918	105,81
208,296	106,46
208,674	108,56
209,052	109,9
209,431	110,09
209,809	108,92
210,187	107,04
210,565	107,1
210,943	107,85
211,321	109,28
211,699	109,91
212,077	110,51
212,455	112,77
212,833	114,23
213,211	114,99
213,589	115,83
213,967	116,27
214,345	116,14
214,722	116,92
215,1	118,18
215,478	118,72
215,855	118,43
216,233	119,54
216,611	119,17
216,988	119,02
217,366	118,23
217,743	116,62
218,121	116,18
218,498	115,82
218,876	115,54
219,253	115,46
219,631	115,86
220,008	116,83
220,385	115,85
220,762	115,13
221,14	117,37
221,517	117,18
221,894	116,67
222,271	119,23
222,648	121,19
223,025	122
223,402	123,98
223,78	126,56
224,157	127,86
224,533	127,42
224,91	127,5
225,287	130,01
225,664	136
226,041	141,86
226,418	146,49
226,795	147,58
227,171	148,84
227,548	151,21
227,925	152,3
228,301	154,96
228,678	157,42
229,055	155,11
229,431	156,08
229,808	160,37
230,184	161,51
230,561	163,1
230,937	166,89
231,313	170,37
231,69	172,75
232,066	171,92
232,442	174,29
232,819	179,2
233,195	179,68
233,571	179,5
233,947	179,75
234,323	178,98
234,699	182,33
235,075	184,95
235,451	187,47
235,827	190,86
236,203	192,53
236,579	196,75
236,955	207,84
237,331	219,38
237,707	234
238,083	260,75
238,459	310,17
238,834	394,84
239,21	559,12
239,586	883,78
239,961	1783,33
240,337	5410,19
240,713	-10775,93
241,088	-3021,35
241,464	-2217,8
241,839	-1667,51
242,215	-1005,89
242,59	-592,3
242,965	-327,37
243,341	-193,66
243,716	-131,74
244,091	-105,49
244,467	-92,98
244,842	-85,32
245,217	-79,76
245,592	-76,55
245,967	-77,01
246,343	-77,47
246,718	-77,43
247,093	-79,19
247,468	-80,18
247,843	-79,36
248,218	-76,04
248,593	-70,92
248,967	-65,62
249,342	-62,4
249,717	-61,15
250,092	-60,87
250,467	-61,96
250,841	-66,42
251,216	-75,42
251,591	-89,73
251,965	-102,93
252,34	-111,53
252,714	-121,1
253,089	-127,47
253,463	-132,41
253,838	-130,22
254,212	-124,14
254,587	-117,23
254,961	-104,47
255,335	-91,24
255,71	-76,9
256,084	-61,79
256,458	-50,5
256,832	-43,51
257,206	-39,63
257,581	-37,11
257,955	-35,43
258,329	-34,19
258,703	-32,6
259,077	-31,41
259,451	-30,07
259,825	-29,59
260,199	-29,88
260,572	-29,68
260,946	-29,8
261,32	-29,59
261,694	-28,88
262,068	-28,45
262,441	-28,03
262,815	-27,93
263,189	-27,64
263,562	-28,26
263,936	-30,64
264,309	-34,08
264,683	-37,28
265,056	-38,74
265,43	-39,25
265,803	-38,96
266,176	-38,15
266,55	-38,02
266,923	-37,62
267,296	-36,61
267,67	-34,97
268,043	-33,46
268,416	-31,36
268,789	-29,25
269,162	-27,67
269,535	-26,37
269,908	-25,02
270,281	-24,02
270,654	-23,75
271,027	-24,23
271,4	-24,38
271,773	-23,93
272,146	-23,64
272,519	-23,73
272,891	-24,22
273,264	-24,77
273,637	-25,05
274,01	-25,03
274,382	-25,48
274,755	-25,78
275,127	-25,97
275,5	-26,06
275,872	-25,91
276,245	-26,02
276,617	-26,61
276,99	-26,84
277,362	-27,54
277,734	-28,12
278,107	-28,19
278,479	-27,97
278,851	-27,42
279,223	-26,82
279,596	-26,27
279,968	-25,82
280,34	-25,09
280,712	-24,01
281,084	-22,79
281,456	-21,79
281,828	-20,72
282,2	-19,38
282,572	-18,33
282,944	-17,72
283,315	-17,31
283,687	-16,97
284,059	-16,92
284,431	-16,7
284,802	-16,37
285,174	-15,91
285,546	-15,45
285,917	-14,97
286,289	-14,69
286,66	-14,51
287,032	-14,29
287,403	-14,2
287,775	-14,33
288,146	-14,62
288,518	-14,89
288,889	-14,93
289,26	-15,13
289,632	-15,72
290,003	-16,3
290,374	-16,65
290,745	-16,9
291,116	-17,03
291,487	-17,08
291,858	-16,81
292,229	-16,55
292,6	-16,33
292,971	-15,85
293,342	-15,45
293,713	-15,01
294,084	-14,33
294,455	-13,61
294,826	-13,31
295,196	-13,3
295,567	-13,33
295,938	-13,11
296,308	-12,8
296,679	-12,42
297,05	-11,88
297,42	-11,36
297,791	-10,75
298,161	-10,39
298,532	-10,01
298,902	-9,73
299,272	-9,51
299,643	-9,37
300,013	-8,99
300,383	-8,64
300,754	-8,7
301,124	-8,9
301,494	-9,16
301,864	-9,44
302,234	-9,84
302,604	-9,89
302,974	-9,71
303,344	-9,41
303,714	-9,09
304,084	-8,83
304,454	-8,76
304,824	-8,65
305,194	-8,68
305,563	-8,75
305,933	-8,69
306,303	-8,41
306,673	-7,98
307,042	-7,49
307,412	-6,93
307,781	-6,45
308,151	-6,21
308,521	-5,94
308,89	-5,58
309,259	-5,47
309,629	-5,4
309,998	-5,18
310,368	-5,06
310,737	-4,95
311,106	-4,82
311,475	-4,75
311,845	-4,73
312,214	-4,74
312,583	-4,91
312,952	-5,01
313,321	-5,04
313,69	-4,74
314,059	-4,73
314,428	-4,94
314,797	-5,19
315,166	-5,58
315,535	-6,1
315,904	-6,48
316,272	-6,77
316,641	-6,93
317,01	-6,8
317,379	-6,56
317,747	-6,28
318,116	-5,94
318,484	-5,73
318,853	-5,64
319,221	-5,57
319,59	-5,62
319,958	-5,54
320,327	-5,4
320,695	-5,3
321,063	-5,08
321,432	-4,93
321,8	-4,58
322,168	-4,32
322,536	-4,39
322,905	-4,17
323,273	-3,9
323,641	-3,68
324,009	-3,42
324,377	-3,33
324,745	-3,34
325,113	-3,35
325,481	-3,32
325,849	-3,31
326,216	-3,24
326,584	-3,1
326,952	-2,88
327,32	-2,62
327,687	-2,43
328,055	-2,25
328,423	-1,99
328,79	-1,99
329,158	-2,2
329,525	-2,4
329,893	-2,38
330,26	-2,05
330,628	-1,95
330,995	-1,9
331,362	-1,82
331,73	-1,83
332,097	-1,72
332,464	-1,46
332,831	-1,28
333,199	-1,25
333,566	-1,19
333,933	-1,04
334,3	-0,92
334,667	-0,88
335,034	-0,88
335,401	-0,93
335,768	-0,94
336,135	-0,93
336,502	-0,88
336,868	-0,69
337,235	-0,54
337,602	-0,57
337,969	-0,54
338,335	-0,43
338,702	-0,28
339,069	-0,2
339,435	-0,11
339,802	0,05
340,168	0,1
340,535	0,21
340,901	0,24
341,267	0,24
341,634	0,27
342	0,32
342,366	0,41
342,733	0,46
343,099	0,6
343,465	0,75
343,831	0,85
344,197	1
344,563	1,01
344,929	1,03
345,295	1,22
345,661	1,3
346,027	1,31
346,393	1,28
346,759	1,38
347,125	1,44
347,491	1,41
347,856	1,43
348,222	1,37
348,588	1,48
348,953	1,62
349,319	1,61
349,684	1,6
350,05	1,57
350,415	1,63
350,781	1,64
351,146	1,66
351,512	1,7
351,877	1,65
352,242	1,67
352,608	1,71
352,973	1,75
353,338	1,85
353,703	1,95
354,068	2,03
354,433	2,06
354,798	2,14
355,164	2,21
355,528	2,26
355,893	2,35
356,258	2,36
356,623	2,44
356,988	2,61
357,353	2,78
357,718	2,86
358,082	2,94
358,447	3,04
358,812	3,17
359,176	3,28
359,541	3,38
359,905	3,44
360,27	3,5
360,634	3,56
360,999	3,6
361,363	3,67
361,728	3,77
362,092	3,84
362,456	3,87
362,821	3,93
363,185	4
363,549	4,1
363,913	4,18
364,277	4,17
364,641	4,11
365,005	4,09
365,369	4,12
365,733	4,18
366,097	4,21
366,461	4,24
366,825	4,28
367,189	4,33
367,553	4,45
367,916	4,6
368,28	4,71
368,644	4,8
369,007	4,87
369,371	4,92
369,734	4,96
370,098	5,01
370,461	5,08
370,825	5,14
371,188	5,17
371,552	5,22
371,915	5,28
372,278	5,45
372,642	5,6
373,005	5,77
373,368	5,89
373,731	6
374,094	6,09
374,457	6,17
374,82	6,29
375,183	6,35
375,546	6,37
375,909	6,38
376,272	6,42
376,635	6,48
376,998	6,58
377,361	6,68
377,723	6,78
378,086	6,87
378,449	6,95
378,811	7
379,174	7,07
379,537	7,16
379,899	7,18
380,262	7,22
380,624	7,23
380,987	7,25
381,349	7,31
381,711	7,33
382,074	7,39
382,436	7,47
382,798	7,59
383,16	7,61
383,522	7,67
383,884	7,7
384,247	7,71
384,609	7,72
384,971	7,73
385,333	7,69
385,695	7,69
386,056	7,71
386,418	7,74
386,78	7,75
387,142	7,78
387,504	7,78
387,865	7,78
388,227	7,77
388,589	7,79
388,95	7,8
389,312	7,83
389,673	7,81
390,035	7,78
390,396	7,73
390,758	7,75
391,119	7,76
391,48	7,8
391,842	7,84
392,203	7,85
392,564	7,9
392,925	7,99
393,286	8,03
393,648	8,04
394,009	8,05
394,37	8,05
394,731	8,06
395,092	8,11
395,452	8,14
395,813	8,18
396,174	8,22
396,535	8,26
396,896	8,27
397,257	8,31
397,617	8,34
397,978	8,4
398,338	8,44
398,699	8,47
399,06	8,5
399,42	8,52
399,781	8,55
400,141	8,53
400,501	8,52
400,862	8,53
401,222	8,54
401,582	8,54
401,943	8,57
402,303	8,6
402,663	8,61
403,023	8,59
403,383	8,6
403,743	8,59
404,103	8,57
404,463	8,62
404,823	8,66
405,183	8,67
405,543	8,66
405,903	8,66
406,262	8,67
406,622	8,67
406,982	8,69
407,342	8,68
407,701	8,71
408,061	8,72
408,42	8,72
408,78	8,74
409,139	8,77
409,499	8,78
409,858	8,79
410,217	8,83
410,577	8,84
410,936	8,86
411,295	8,87
411,655	8,88
412,014	8,86
412,373	8,84
412,732	8,83
413,091	8,8
413,45	8,76
413,809	8,72
414,168	8,66
414,527	8,6
414,886	8,54
415,245	8,49
415,603	8,45
415,962	8,42
416,321	8,37
416,679	8,33
417,038	8,27
417,397	8,23
417,755	8,19
418,114	8,15
418,472	8,11
418,831	8,09
419,189	8,07
419,547	8,04
419,906	8,02
420,264	8
420,622	7,98
420,981	7,98
421,339	7,97
421,697	7,98
422,055	7,99
422,413	8,02
422,771	8,03
423,129	8,05
423,487	8,06
423,845	8,09
424,203	8,11
424,56	8,14
424,918	8,16
425,276	8,19
425,634	8,23
425,991	8,28
426,349	8,31
426,707	8,35
427,064	8,4
427,422	8,42
427,779	8,47
428,137	8,53
428,494	8,59
428,851	8,64
429,209	8,66
429,566	8,67
429,923	8,65
430,28	8,65
430,637	8,67
430,995	8,67
431,352	8,68
431,709	8,67
432,066	8,68
432,423	8,7
432,78	8,68
433,137	8,68
433,493	8,67
433,85	8,68
434,207	8,66
434,564	8,64
434,92	8,64
435,277	8,64
435,634	8,62
435,99	8,59
436,347	8,57
436,703	8,6
437,06	8,59
437,416	8,6
437,773	8,59
438,129	8,56
438,485	8,56
438,841	8,54
439,198	8,54
439,554	8,52
439,91	8,52
440,266	8,53
440,622	8,52
440,978	8,52
441,334	8,49
441,69	8,49
442,046	8,48
442,402	8,48
442,758	8,45
443,113	8,45
443,469	8,46
443,825	8,45
444,181	8,43
444,536	8,42
444,892	8,42
445,247	8,43
445,603	8,45
445,958	8,45
446,314	8,47
446,669	8,48
447,025	8,5
447,38	8,51
447,735	8,51
448,09	8,53
448,446	8,55
448,801	8,56
449,156	8,58
449,511	8,6
449,866	8,62
450,221	8,66
450,576	8,69
450,931	8,73
451,286	8,78
451,641	8,82
451,995	8,86
452,35	8,9
452,705	8,92
453,06	8,93
453,414	8,95
453,769	8,96
454,123	8,94
454,478	8,96
454,832	8,97
455,187	8,96
455,541	8,95
455,896	8,93
456,25	8,91
456,604	8,88
456,958	8,87
457,313	8,85
457,667	8,83
458,021	8,8
458,375	8,79
458,729	8,8
459,083	8,8
459,437	8,8
459,791	8,79
460,145	8,8
460,499	8,8
460,852	8,79
461,206	8,8
461,56	8,8
461,914	8,79
462,267	8,8
462,621	8,79
462,974	8,79
463,328	8,82
463,681	8,84
464,035	8,88
464,388	8,91
464,742	8,93
465,095	8,96
465,448	8,99
465,801	8,98
466,155	8,96
466,508	8,93
466,861	8,93
467,214	8,94
467,567	8,93
467,92	8,95
468,273	8,96
468,626	8,94
468,979	8,96
469,332	8,97
469,684	8,97
470,037	8,99
470,39	9,01
470,743	9,02
471,095	9,02
471,448	9,03
471,8	9,03
472,153	9,04
472,505	9,05
472,858	9,06
473,21	9,09
473,562	9,11
473,915	9,13
474,267	9,14
474,619	9,14
474,971	9,15
475,324	9,14
475,676	9,17
476,028	9,18
476,38	9,17
476,732	9,17
477,084	9,17
477,436	9,16
477,787	9,14
478,139	9,12
478,491	9,1
478,843	9,09
479,195	9,07
479,546	9,04
479,898	9
480,249	8,95
480,601	8,91
480,952	8,88
481,304	8,86
481,655	8,84
482,007	8,8
482,358	8,78
482,709	8,77
483,061	8,75
483,412	8,74
483,763	8,73
484,114	8,73
484,465	8,73
484,816	8,72
485,167	8,72
485,518	8,72
485,869	8,71
486,22	8,71
486,571	8,71
486,922	8,71
487,272	8,73
487,623	8,74
487,974	8,76
488,324	8,77
488,675	8,77
489,025	8,79
489,376	8,81
489,726	8,82
490,077	8,83
490,427	8,84
490,778	8,84
491,128	8,85
491,478	8,86
491,828	8,89
492,179	8,92
492,529	8,93
492,879	8,94
493,229	8,99
493,579	9,01
493,929	9,02
494,279	9,04
494,629	9,04
494,979	9,05
495,328	9,06
495,678	9,09
496,028	9,15
496,378	9,17
496,727	9,21
497,077	9,24
497,426	9,26
497,776	9,27
498,125	9,3
498,475	9,3
498,824	9,32
499,174	9,32
499,523	9,31
499,872	9,33
500,221	9,35
500,571	9,34
500,92	9,35
501,269	9,38
501,618	9,37
501,967	9,39
502,316	9,39
502,665	9,41
503,014	9,4
503,363	9,4
503,711	9,41
504,06	9,4
504,409	9,42
504,758	9,42
505,106	9,41
505,455	9,4
505,803	9,41
506,152	9,38
506,5	9,38
506,849	9,38
507,197	9,38
507,546	9,37
507,894	9,38
508,242	9,38
508,59	9,35
508,939	9,35
509,287	9,34
509,635	9,37
509,983	9,39
510,331	9,39
510,679	9,39
511,027	9,4
511,375	9,41
511,723	9,4
512,07	9,42
512,418	9,45
512,766	9,48
513,114	9,5
513,461	9,52
513,809	9,52
514,156	9,54
514,504	9,54
514,851	9,54
515,199	9,53
515,546	9,51
515,893	9,51
516,241	9,53
516,588	9,53
516,935	9,52
517,282	9,5
517,63	9,52
517,977	9,52
518,324	9,53
518,671	9,54
519,018	9,56
519,365	9,55
519,711	9,55
520,058	9,55
520,405	9,55
520,752	9,54
521,099	9,54
521,445	9,56
521,792	9,57
522,138	9,58
522,485	9,59
522,832	9,61
523,178	9,63
523,524	9,61
523,871	9,62
524,217	9,62
524,563	9,62
524,91	9,61
525,256	9,57
525,602	9,56
525,948	9,53
526,294	9,51
526,64	9,5
526,986	9,48
527,332	9,44
527,678	9,44
528,024	9,44
528,37	9,44
528,716	9,42
529,061	9,42
529,407	9,42
529,753	9,42
530,098	9,42
530,444	9,42
530,789	9,41
531,135	9,4
531,48	9,4
531,826	9,39
532,171	9,39
532,516	9,39
532,862	9,4
533,207	9,43
533,552	9,44
533,897	9,46
534,242	9,46
534,587	9,49
534,932	9,5
535,277	9,51
535,622	9,5
535,967	9,51
536,312	9,53
536,657	9,52
537,001	9,54
537,346	9,54
537,691	9,57
538,035	9,59
538,38	9,62
538,724	9,62
539,069	9,63
539,413	9,63
539,758	9,63
540,102	9,64
540,446	9,61
540,791	9,6
541,135	9,6
541,479	9,62
541,823	9,63
542,167	9,64
542,512	9,65
542,856	9,65
543,2	9,65
543,543	9,65
543,887	9,65
544,231	9,65
544,575	9,66
544,919	9,64
545,262	9,64
545,606	9,65
545,95	9,66
546,293	9,67
546,637	9,69
546,98	9,71
547,324	9,71
547,667	9,74
548,011	9,75
548,354	9,76
548,697	9,76
549,04	9,76
549,384	9,77
549,727	9,76
550,07	9,78
550,413	9,77
550,756	9,76
551,099	9,78
551,442	9,79
551,785	9,8
552,128	9,81
552,47	9,82
552,813	9,8
553,156	9,78
553,499	9,77
553,841	9,77
554,184	9,76
554,526	9,74
554,869	9,73
555,211	9,72
555,554	9,71
555,896	9,71
556,238	9,69
556,581	9,62
556,923	9,61
557,265	9,59
557,607	9,57
557,949	9,57
558,291	9,56
558,633	9,52
558,975	9,51
559,317	9,48
559,659	9,46
560,001	9,47
560,343	9,46
560,685	9,43
561,026	9,42
561,368	9,4
561,71	9,38
562,051	9,37
562,393	9,39
562,734	9,35
563,076	9,33
563,417	9,32
563,759	9,34
564,1	9,33
564,441	9,32
564,782	9,32
565,124	9,3
565,465	9,3
565,806	9,29
566,147	9,29
566,488	9,28
566,829	9,25
567,17	9,22
567,511	9,19
567,851	9,19
568,192	9,19
568,533	9,18
568,874	9,18
569,214	9,18
569,555	9,13
569,895	9,11
570,236	9,08
570,576	9,09
570,917	9,08
571,257	9,07
571,598	9,04
571,938	9,01
572,278	9
572,618	8,99
572,959	9
573,299	8,98
573,639	8,97
573,979	8,96
574,319	8,96
574,659	8,96
574,999	8,94
575,339	8,92
575,678	8,91
576,018	8,89
576,358	8,86
576,698	8,85
577,037	8,86
577,377	8,86
577,716	8,84
578,056	8,82
578,395	8,79
578,735	8,8
579,074	8,8
579,413	8,8
579,753	8,77
580,092	8,74
580,431	8,7
580,77	8,69
581,109	8,69
581,448	8,67
581,787	8,62
582,126	8,63
582,465	8,64
582,804	8,61
583,143	8,61
583,482	8,63
583,82	8,64
584,159	8,63
584,498	8,61
584,836	8,58
585,175	8,57
585,514	8,59
585,852	8,6
586,19	8,6
586,529	8,58
586,867	8,57
587,205	8,58
587,544	8,63
587,882	8,64
588,22	8,66
588,558	8,69
588,896	8,73
589,234	8,71
589,572	8,69
589,91	8,72
590,248	8,67
590,586	8,65
590,924	8,65
591,262	8,66
591,599	8,67
591,937	8,67
592,275	8,67
592,612	8,66
592,95	8,66
593,287	8,7
593,625	8,71
593,962	8,72
594,299	8,71
594,637	8,7
594,974	8,71
595,311	8,71
595,648	8,71
595,985	8,71
596,322	8,72
596,659	8,74
596,996	8,73
597,333	8,74
597,67	8,74
598,007	8,72
598,344	8,7
598,681	8,7
599,017	8,72
599,354	8,75
599,691	8,77
600,027	8,79
600,364	8,77
600,7	8,8
601,037	8,82
601,373	8,88
601,71	8,91
602,046	8,92
602,382	8,9
602,718	8,93
603,054	8,93
603,391	8,94
603,727	8,93
604,063	8,95
604,399	9
604,735	9,01
605,071	9,03
605,406	9,04
605,742	9,06
606,078	9,07
606,414	9,08
606,749	9,1
607,085	9,09
607,421	9,1
607,756	9,12
608,092	9,11
608,427	9,07
608,762	9,04
609,098	9,02
609,433	9,02
609,768	8,99
610,104	8,97
610,439	8,94
610,774	8,96
611,109	8,95
611,444	8,92
611,779	8,91
612,114	8,92
612,449	8,94
612,784	8,92
613,118	8,9
613,453	8,86
613,788	8,81
614,123	8,77
614,457	8,73
614,792	8,68
615,126	8,66
615,461	8,65
615,795	8,67
616,13	8,64
616,464	8,64
616,798	8,65
617,132	8,66
617,467	8,67
617,801	8,65
618,135	8,63
618,469	8,64
618,803	8,67
619,137	8,7
619,471	8,69
619,805	8,68
620,139	8,71
620,472	8,73
620,806	8,74
621,14	8,75
621,473	8,76
621,807	8,77
622,141	8,78
622,474	8,75
622,808	8,71
623,141	8,72
623,474	8,75
623,808	8,81
624,141	8,83
624,474	8,88
624,807	8,91
625,141	8,92
625,474	8,93
625,807	8,92
626,14	8,9
626,473	8,9
626,806	8,9
627,138	8,89
627,471	8,87
627,804	8,86
628,137	8,86
628,469	8,86
628,802	8,86
629,135	8,85
629,467	8,88
629,8	8,89
630,132	8,9
630,465	8,9
630,797	8,85
631,129	8,81
631,461	8,79
631,794	8,79
632,126	8,79
632,458	8,81
632,79	8,82
633,122	8,84
633,454	8,85
633,786	8,88
634,118	8,88
634,45	8,9
634,781	8,92
635,113	8,94
635,445	8,94
635,777	8,97
636,108	8,99
636,44	8,99
636,771	9,02
637,103	8,99
637,434	8,98
637,765	9
638,097	9,02
638,428	9,01
638,759	8,97
639,09	8,98
639,422	8,97
639,753	8,97
640,084	8,95
640,415	8,96
640,746	8,98
641,077	8,99
641,407	9,01
641,738	9
642,069	9,02
642,4	9,06
642,73	9,04
643,061	9,03
643,392	9,01
643,722	9,03
644,053	9,07
644,383	9,09
644,713	9,09
645,044	9,08
645,374	9,08
645,704	9,11
646,034	9,11
646,365	9,09
646,695	9,06
647,025	9,1
647,355	9,11
647,685	9,08
648,015	9,07
648,344	9,04
648,674	9,05
649,004	9,03
649,334	9,01
649,663	9,02
649,993	8,99
650,323	9,02
650,652	8,99
650,982	8,96
651,311	8,94
651,64	8,92
651,97	8,95
652,299	8,98
652,628	8,98
652,958	9
653,287	9,01
653,616	9,03
653,945	9,03
654,274	9,03
654,603	9,03
654,932	9,02
655,261	9,06
655,589	9,08
655,918	9,12
656,247	9,14
656,576	9,17
656,904	9,23
657,233	9,23
657,561	9,24
657,89	9,28
658,218	9,33
658,547	9,35
658,875	9,31
659,203	9,28
659,532	9,29
659,86	9,31
660,188	9,33
660,516	9,36
660,844	9,36
661,172	9,37
661,5	9,39
661,828	9,43
662,156	9,4
662,484	9,37
662,811	9,34
663,139	9,34
663,467	9,34
663,794	9,34
664,122	9,34
664,45	9,34
664,777	9,31
665,104	9,32
665,432	9,3
665,759	9,32
666,086	9,36
666,414	9,33
666,741	9,28
667,068	9,3
667,395	9,27
667,722	9,27
668,049	9,27
668,376	9,24
668,703	9,2
669,03	9,26
669,357	9,28
669,683	9,31
670,01	9,3
670,337	9,28
670,663	9,26
670,99	9,25
671,317	9,29
671,643	9,31
671,969	9,27
672,296	9,3
672,622	9,34
672,948	9,3
673,275	9,28
673,601	9,27
673,927	9,23
674,253	9,21
674,579	9,18
674,905	9,12
675,231	9,14
675,557	9,15
675,883	9,14
676,209	9,13
676,534	9,13
676,86	9,13
677,186	9,16
677,511	9,18
677,837	9,23
678,162	9,25
678,488	9,26
678,813	9,33
679,139	9,37
679,464	9,39
679,789	9,42
680,114	9,51
680,44	9,56
680,765	9,58
681,09	9,57
681,415	9,54
681,74	9,6
682,065	9,6
682,39	9,66
682,714	9,69
683,039	9,76
683,364	9,78
683,689	9,8
684,013	9,81
684,338	9,82
684,662	9,83
684,987	9,83
685,311	9,82
685,636	9,78
685,96	9,75
686,284	9,74
686,608	9,73
686,933	9,66
687,257	9,62
687,581	9,63
687,905	9,68
688,229	9,77
688,553	9,77
688,877	9,79
689,201	9,73
689,524	9,66
689,848	9,64
690,172	9,63
690,496	9,63
690,819	9,57
691,143	9,54
691,466	9,5
691,79	9,46
692,113	9,46
692,436	9,45
692,76	9,46
693,083	9,46
693,406	9,49
693,729	9,52
694,053	9,57
694,376	9,57
694,699	9,59
695,022	9,61
695,344	9,67
695,667	9,69
695,99	9,8
696,313	9,9
696,636	9,91
696,958	9,94
697,281	10
697,604	10,07
697,926	10,13
698,249	10,17
698,571	10,2
698,893	10,2
699,216	10,22
699,538	10,18
699,86	10,18
700,182	10,2
700,504	10,19
700,827	10,15
701,149	10,13
701,471	10,07
701,793	10,03
702,114	9,96
702,436	9,89
702,758	9,78
703,08	9,68
703,401	9,61
703,723	9,58
704,045	9,49
704,366	9,44
704,688	9,39
705,009	9,35
705,331	9,32
705,652	9,38
705,973	9,4
706,294	9,42
706,616	9,39
706,937	9,36
707,258	9,38
707,579	9,43
707,9	9,52
708,221	9,59
708,542	9,61
708,863	9,63
709,183	9,69
709,504	9,72
709,825	9,74
710,145	9,75
710,466	9,75
710,787	9,83
711,107	9,92
711,427	10,03
711,748	10,09
712,068	10,16
712,388	10,2
712,709	10,27
713,029	10,31
713,349	10,36
713,669	10,4
713,989	10,43
714,309	10,51
714,629	10,52
714,949	10,56
715,269	10,55
715,589	10,55
715,908	10,58
716,228	10,61
716,548	10,7
716,867	10,8
717,187	10,82
717,506	10,83
717,826	10,78
718,145	10,77
718,465	10,8
718,784	10,8
719,103	10,8
719,422	10,76
719,741	10,84
720,061	10,88
720,38	10,97
720,699	11,05
721,018	11,09
721,336	11,22
721,655	11,29
721,974	11,44
722,293	11,56
722,612	11,66
722,93	11,76
723,249	11,86
723,567	11,96
723,886	12,14
724,204	12,28
724,523	12,47
724,841	12,57
725,159	12,66
725,477	12,78
725,796	12,9
726,114	13,12
726,432	13,21
726,75	13,41
727,068	13,52
727,386	13,69
727,704	13,85
728,022	13,9
728,339	14,05
728,657	14,11
728,975	14,23
729,292	14,33
729,61	14,46
729,928	14,55
730,245	14,6
730,562	14,7
730,88	14,82
731,197	14,87
731,514	14,91
731,832	15,05
732,149	15,16
732,466	15,25
732,783	15,26
733,1	15,31
733,417	15,32
733,734	15,45
734,051	15,49
734,368	15,53
734,684	15,69
735,001	15,73
735,318	15,81
735,634	15,91
735,951	16,03
736,268	16,09
736,584	16,1
736,9	16,22
737,217	16,28
737,533	16,32
737,849	16,42
738,166	16,59
738,482	16,72
738,798	16,85
739,114	17,01
739,43	17,18
739,746	17,25
740,062	17,34
740,378	17,41
740,693	17,51
741,009	17,7
741,325	17,77
741,641	17,83
741,956	17,91
742,272	18,02
742,587	18,16
742,903	18,31
743,218	18,43
743,533	18,5
743,849	18,55
744,164	18,61
744,479	18,77
744,794	18,92
745,109	18,99
745,424	19,07
745,739	19,09
746,054	19,12
746,369	19,23
746,684	19,33
746,999	19,42
747,313	19,44
747,628	19,37
747,943	19,39
748,257	19,49
748,572	19,73
748,886	19,81
749,201	19,77
749,515	19,82
749,829	19,93
750,144	20,07
750,458	20,15
750,772	20,14
751,086	20,09
751,4	20,07
751,714	20
752,028	19,98
752,342	20
752,656	20,07
752,97	20,14
753,284	20,25
753,597	20,32
753,911	20,44
754,225	20,54
754,538	20,6
754,852	20,66
755,165	20,64
755,478	20,63
755,792	20,67
756,105	20,73
756,418	20,8
756,731	20,88
757,045	20,99
757,358	21,18
757,671	21,25
757,984	21,27
758,297	21,39
758,609	21,51
758,922	21,6
759,235	21,68
759,548	21,69
759,86	21,58
760,173	21,41
760,486	21,28
760,798	21,16
761,111	21,02
761,423	20,87
761,735	20,8
762,048	20,85
762,36	20,88
762,672	20,91
762,984	20,92
763,296	20,86
763,608	20,86
763,92	20,86
764,232	20,87
764,544	20,96
764,856	21,03
765,168	21,12
765,48	21,22
765,791	21,31
766,103	21,49
766,414	21,72
766,726	22,03
767,037	22,38
767,349	22,77
767,66	23,19
767,972	23,7
768,283	24,14
768,594	24,54
768,905	24,83
769,216	25,06
769,527	25,41
769,838	25,67
770,149	25,87
770,46	26,22
770,771	26,68
771,082	26,87
771,393	27,07
771,703	27,32
772,014	27,53
772,324	27,69
772,635	27,8
772,945	27,89
773,256	27,97
773,566	28,04
773,877	28,1
774,187	28,15
774,497	28,2
774,807	28,29
775,117	28,28
775,427	28,34
775,737	28,46
776,047	28,5
776,357	28,64
776,667	28,79
776,977	28,88
777,287	28,99
777,596	29,18
777,906	29,39
778,216	29,6
778,525	29,66
778,835	29,73
779,144	29,9
779,453	29,96
779,763	30,07
780,072	30,04
780,381	30,23
780,69	30,36
781	30,48
781,309	30,57
781,618	30,78
781,927	31,09
782,235	31,12
782,544	31,29
782,853	31,56
783,162	31,69
783,471	31,61
783,779	31,7
784,088	31,71
784,396	31,65
784,705	31,54
785,013	31,46
785,322	31,37
785,63	31,19
785,938	31,03
786,246	30,85
786,554	30,97
786,863	30,93
787,171	30,78
787,479	30,63
787,787	30,61
788,094	30,65
788,402	30,5
788,71	30,74
789,018	30,75
789,326	30,77
789,633	30,84
789,941	31,03
790,248	30,97
790,556	30,97
790,863	30,93
791,171	30,76
791,478	30,8
791,785	30,89
792,092	31,01
792,399	31,32
792,707	31,59
793,014	31,53
793,321	31,66
793,628	32,1
793,934	32,47
794,241	32,74
794,548	32,58
794,855	32,61
795,161	32,64
795,468	32,56
795,775	32,3
796,081	32,29
796,388	32,33
796,694	32,23
797	31,9
797,307	32
797,613	32,14
797,919	32,2
798,225	32,36
798,531	32,49
798,837	32,58
799,143	32,68
799,449	32,8
799,755	32,73
800,061	32,63
800,367	32,74
800,672	32,62
800,978	32,69
801,284	32,8
801,589	32,63
801,895	32,65
802,2	32,94
802,506	33,18
802,811	33,1
803,116	33,28
803,421	33,89
803,727	34,16
804,032	34,43
804,337	34,58
804,642	34,65
804,947	34,73
805,252	34,73
805,556	34,79
805,861	34,92
806,166	34,8
806,471	34,76
806,775	34,83
807,08	35,01
807,384	35,34
807,689	35,45
807,993	35,83
808,298	36,3
808,602	36,52
808,906	36,49
809,211	36,78
809,515	37,02
809,819	37,25
810,123	37,31
810,427	37,42
810,731	37,48
811,035	37,48
811,338	37,45
811,642	37,44
811,946	37,41
812,25	37,48
812,553	37,92
812,857	38,28
813,16	38,24
813,464	38,11
813,767	38,03
814,07	38,09
814,374	38,15
814,677	37,95
814,98	37,86
815,283	37,8
815,586	37,52
815,889	37,22
816,192	36,78
816,495	36,59
816,798	36,15
817,101	35,88
817,404	35,51
817,706	35,05
818,009	34,63
818,312	33,86
818,614	32,74
818,917	30,79
819,219	28,54
819,521	26,67
819,824	25,24
820,126	24,1
820,428	23,2
820,73	22,54
821,032	22,02
821,334	21,63
821,636	21,37
821,938	21,2
822,24	21,05
822,542	20,99
822,844	20,96
823,145	20,93
823,447	20,87
823,749	20,8
824,05	20,79
824,352	20,79
824,653	20,81
824,955	20,77
825,256	20,91
825,557	21,13
825,858	21,38
826,16	21,7
826,461	22,06
826,762	22,54
827,063	23,13
827,364	23,75
827,665	24,37
827,965	24,92
828,266	25,36
828,567	25,85
828,868	26,23
829,168	26,44
829,469	26,63
829,769	26,96
830,07	27,33
830,37	27,55
830,67	27,7
830,971	28,03
831,271	28,39
831,571	28,62
831,871	28,94
832,171	29,29
832,471	29,45
832,771	29,68
833,071	29,78
833,371	29,62
833,671	29,57
833,971	29,46
834,27	29,57
834,57	29,93
834,869	30,08
835,169	30,15
835,468	30,52
835,768	30,99
836,067	31,28
836,367	31,42
836,666	31,97
836,965	32,71
837,264	33,36
837,563	34,22
837,862	35,18
838,161	36
838,46	36,72
838,759	37,42
839,058	38,17
839,356	38,89
839,655	39,59
839,954	40,29
840,252	41,24
840,551	41,92
840,849	42,31
841,148	42,85
841,446	42,95
841,744	42,55
842,043	42,16
842,341	42,03
842,639	42,52
842,937	42,79
843,235	43,41
843,533	43,92
843,831	44,9
844,129	45,81
844,427	46,76
844,724	47,71
845,022	48,96
845,32	50,04
845,617	51,09
845,915	52,04
846,212	52,84
846,51	53,41
846,807	53,44
847,104	53,64
847,402	54,02
847,699	55,24
847,996	56,67
848,293	57,74
848,59	58,5
848,887	58,86
849,184	59,32
849,481	58,83
849,778	58,4
850,074	58,13
850,371	58,3
850,668	58,62
850,964	58,92
851,261	58,86
851,557	59,11
851,854	59,75
852,15	60,34
852,446	61,31
852,743	61,87
853,039	62,77
853,335	63,42
853,631	63,69
853,927	62,82
854,223	61,73
854,519	61,12
854,815	60,98
855,111	61,46
855,406	61,29
855,702	61,75
855,998	62,63
856,293	62,43
856,589	62,27
856,884	62,74
857,18	62,67
857,475	62,81
857,77	62,92
858,066	62,85
858,361	62,23
858,656	61,79
858,951	61,79
859,246	61,73
859,541	61,53
859,836	61,29
860,131	61,95
860,426	63,18
860,72	63,83
861,015	63,86
861,31	63,58
861,604	64,21
861,899	64,16
862,193	63,88
862,487	64,16
862,782	64,33
863,076	63,71
863,37	64,15
863,664	64,39
863,959	64,23
864,253	63,91
864,547	64,16
864,841	64,56
865,135	64,11
865,428	63,87
865,722	63,64
866,016	63,36
866,31	63,34
866,603	62,79
866,897	62,35
867,19	62,08
867,484	61,32
867,777	60,26
868,07	60,5
868,364	61,12
868,657	62,34
868,95	63,13
869,243	64,05
869,536	64,52
869,829	64,61
870,122	65,03
870,415	65,02
870,708	65,3
871	65,01
871,293	65,43
871,586	66,12
871,878	66,28
872,171	66,05
872,463	65,74
872,756	65,91
873,048	66,19
873,341	66,7
873,633	67,68
873,925	68,71
874,217	68,66
874,509	67,96
874,801	66,65
875,093	65,86
875,385	65,38
875,677	64,82
875,969	64,76
