Data from zc74042_4_Reflection_00002.txt Node
Date: Thu Mar 12 14:51:17 ART 2020
User: Ana
Spectrometer: USB2E3644
Trigger mode: 4
Integration Time (sec): 5,000000E-2
Scans to average: 10
Electric dark correction enabled: true
Nonlinearity correction enabled: false
Boxcar width: 10
XAxis mode: Wavelengths
Number of Pixels in Spectrum: 2048
>>>>>Begin Spectral Data<<<<<
178,315	134,66
178,696	116,44
179,076	100,87
179,457	76,38
179,838	56,06
180,218	58,46
180,599	111,54
180,979	103,57
181,36	124,42
181,74	146,99
182,121	146,88
182,501	133,77
182,881	119,16
183,262	111,97
183,642	113,72
184,022	119,04
184,402	125,2
184,783	130,87
185,163	131,46
185,543	132,34
185,923	132,7
186,303	130,61
186,683	125,66
187,063	122,01
187,443	118,01
187,823	117,53
188,203	120,07
188,583	122,33
188,963	125,98
189,343	127,77
189,723	126,17
190,102	124,45
190,482	128,67
190,862	132,9
191,242	136
191,621	136,75
192,001	137,86
192,38	136,96
192,76	136,89
193,14	137,6
193,519	137,15
193,898	136,46
194,278	137,13
194,657	136,97
195,037	137,07
195,416	138,33
195,795	137,29
196,175	135,96
196,554	135,71
196,933	133,01
197,312	131,12
197,692	130,02
198,071	130,38
198,45	128,93
198,829	127,94
199,208	127,56
199,587	126,94
199,966	124,89
200,345	122,84
200,724	121,8
201,103	120,68
201,482	119,56
201,86	120,14
202,239	120,43
202,618	120,22
202,997	120,6
203,375	119,76
203,754	119,78
204,133	119,46
204,511	118,54
204,89	117,82
205,269	117,18
205,647	118,43
206,026	118,42
206,404	117,89
206,782	116,47
207,161	114,2
207,539	112,76
207,918	113,51
208,296	114,81
208,674	115,84
209,052	116,19
209,431	116,65
209,809	115,16
210,187	113,86
210,565	114,17
210,943	114,43
211,321	115,44
211,699	115,48
212,077	116,02
212,455	117,36
212,833	118,38
213,211	119,3
213,589	118,71
213,967	118,6
214,345	118,68
214,722	118,87
215,1	120,51
215,478	120,7
215,855	118,87
216,233	117,91
216,611	118,24
216,988	120,14
217,366	121,19
217,743	122,48
218,121	123,63
218,498	124,39
218,876	123,76
219,253	122,81
219,631	123,83
220,008	124,3
220,385	124,23
220,762	124,58
221,14	127,12
221,517	128,6
221,894	129,36
222,271	131,42
222,648	135,08
223,025	137,63
223,402	141,36
223,78	145,67
224,157	148,68
224,533	148,76
224,91	148,13
225,287	148,19
225,664	151,29
226,041	154,72
226,418	156,79
226,795	157,59
227,171	159,36
227,548	161,93
227,925	165,32
228,301	167,79
228,678	169,55
229,055	168,53
229,431	169,65
229,808	172,06
230,184	174,08
230,561	174,95
230,937	177,22
231,313	178,65
231,69	180,43
232,066	179,8
232,442	181,15
232,819	186,12
233,195	187,05
233,571	188,5
233,947	190,8
234,323	192,06
234,699	198,03
235,075	202,57
235,451	205,87
235,827	210,37
236,203	215,36
236,579	222,23
236,955	233,09
237,331	245,2
237,707	260,87
238,083	289,61
238,459	343,19
238,834	435,49
239,21	620,95
239,586	986,16
239,961	1990
240,337	6047,22
240,713	-12094,44
241,088	-3410,94
241,464	-2476,14
241,839	-1863,56
242,215	-1123,74
242,59	-655,85
242,965	-360,48
243,341	-213,1
243,716	-142,42
244,091	-111,28
244,467	-94,65
244,842	-84,23
245,217	-76,49
245,592	-72,43
245,967	-72,52
246,343	-72,59
246,718	-72,53
247,093	-74,51
247,468	-75,53
247,843	-75,13
248,218	-72,4
248,593	-67,15
248,967	-62,35
249,342	-60,43
249,717	-59
250,092	-58,68
250,467	-59,72
250,841	-64,61
251,216	-73,95
251,591	-89,36
251,965	-103,88
252,34	-114,98
252,714	-127,27
253,089	-136,25
253,463	-143,54
253,838	-141,33
254,212	-135,28
254,587	-126,77
254,961	-111,28
255,335	-96,1
255,71	-80,29
256,084	-63,83
256,458	-52,3
256,832	-44,57
257,206	-39,95
257,581	-37,46
257,955	-35,42
258,329	-33,69
258,703	-32,08
259,077	-30,87
259,451	-29,58
259,825	-29,11
260,199	-29,51
260,572	-29,86
260,946	-30,3
261,32	-30,22
261,694	-29,93
262,068	-29,94
262,441	-29,63
262,815	-29,45
263,189	-29,01
263,562	-29,25
263,936	-31,41
264,309	-34,55
264,683	-37,95
265,056	-39,6
265,43	-40,26
265,803	-40,43
266,176	-40,7
266,55	-40,52
266,923	-40,04
267,296	-39,26
267,67	-37,84
268,043	-36,27
268,416	-33,64
268,789	-31,49
269,162	-29,7
269,535	-28,06
269,908	-26,65
270,281	-26,08
270,654	-26,27
271,027	-27,29
271,4	-28,05
271,773	-28,12
272,146	-28,08
272,519	-28
272,891	-28,11
273,264	-28,17
273,637	-28,29
274,01	-27,92
274,382	-28,37
274,755	-28,61
275,127	-28,49
275,5	-28,23
275,872	-27,93
276,245	-28,35
276,617	-29,05
276,99	-29,44
277,362	-30,19
277,734	-30,12
278,107	-29,58
278,479	-28,89
278,851	-27,99
279,223	-27,29
279,596	-26,87
279,968	-26,47
280,34	-26,01
280,712	-25,27
281,084	-24,37
281,456	-23,34
281,828	-22,1
282,2	-20,32
282,572	-18,92
282,944	-18,01
283,315	-17,55
283,687	-17,15
284,059	-16,88
284,431	-16,47
284,802	-15,98
285,174	-15,47
285,546	-15,19
285,917	-14,78
286,289	-14,44
286,66	-14,17
287,032	-13,8
287,403	-13,41
287,775	-13,29
288,146	-13,4
288,518	-13,56
288,889	-13,36
289,26	-13,29
289,632	-13,64
290,003	-14,08
290,374	-14,33
290,745	-14,42
291,116	-14,35
291,487	-14,3
291,858	-14,02
292,229	-13,8
292,6	-13,57
292,971	-12,93
293,342	-12,32
293,713	-11,74
294,084	-11,06
294,455	-10,37
294,826	-10,02
295,196	-9,98
295,567	-9,96
295,938	-9,58
296,308	-9,21
296,679	-8,99
297,05	-8,62
297,42	-8,11
297,791	-7,71
298,161	-7,57
298,532	-7,34
298,902	-7,11
299,272	-6,87
299,643	-6,62
300,013	-6,15
300,383	-5,85
300,754	-5,89
301,124	-5,9
301,494	-6,04
301,864	-6,19
302,234	-6,4
302,604	-6,46
302,974	-6,35
303,344	-6,12
303,714	-5,92
304,084	-5,72
304,454	-5,59
304,824	-5,53
305,194	-5,58
305,563	-5,52
305,933	-5,33
306,303	-5,08
306,673	-4,78
307,042	-4,47
307,412	-4,02
307,781	-3,65
308,151	-3,36
308,521	-3,14
308,89	-3
309,259	-2,9
309,629	-2,84
309,998	-2,78
310,368	-2,71
310,737	-2,53
311,106	-2,36
311,475	-2,2
311,845	-2,17
312,214	-2,07
312,583	-1,97
312,952	-1,86
313,321	-1,75
313,69	-1,36
314,059	-1,08
314,428	-0,97
314,797	-0,87
315,166	-1
315,535	-1,19
315,904	-1,38
316,272	-1,49
316,641	-1,58
317,01	-1,42
317,379	-1,23
317,747	-0,98
318,116	-0,75
318,484	-0,58
318,853	-0,52
319,221	-0,6
319,59	-0,6
319,958	-0,45
320,327	-0,25
320,695	0,01
321,063	0,31
321,432	0,46
321,8	0,61
322,168	0,86
322,536	0,94
322,905	1,25
323,273	1,64
323,641	2
324,009	2,31
324,377	2,55
324,745	2,57
325,113	2,74
325,481	2,99
325,849	3,29
326,216	3,66
326,584	3,96
326,952	4,26
327,32	4,66
327,687	4,84
328,055	4,94
328,423	5,03
328,79	5,1
329,158	5,15
329,525	5,21
329,893	5,33
330,26	5,58
330,628	5,74
330,995	5,79
331,362	5,85
331,73	5,97
332,097	6,15
332,464	6,44
332,831	6,65
333,199	6,75
333,566	6,85
333,933	6,8
334,3	6,87
334,667	6,9
335,034	6,84
335,401	6,88
335,768	7,04
336,135	7,23
336,502	7,32
336,868	7,39
337,235	7,52
337,602	7,65
337,969	7,82
338,335	7,93
338,702	8,16
339,069	8,36
339,435	8,52
339,802	8,71
340,168	8,77
340,535	8,87
340,901	8,85
341,267	8,86
341,634	8,98
342	9,09
342,366	9,28
342,733	9,46
343,099	9,71
343,465	9,78
343,831	9,79
344,197	9,88
344,563	9,94
344,929	9,99
345,295	10,05
345,661	10,16
346,027	10,22
346,393	10,2
346,759	10,25
347,125	10,31
347,491	10,44
347,856	10,59
348,222	10,63
348,588	10,86
348,953	11
349,319	11,07
349,684	11,12
350,05	11,14
350,415	11,21
350,781	11,23
351,146	11,4
351,512	11,53
351,877	11,64
352,242	11,69
352,608	11,78
352,973	11,9
353,338	11,96
353,703	12,08
354,068	12,19
354,433	12,31
354,798	12,4
355,164	12,42
355,528	12,49
355,893	12,58
356,258	12,57
356,623	12,65
356,988	12,81
357,353	13
357,718	13,09
358,082	13,2
358,447	13,32
358,812	13,47
359,176	13,59
359,541	13,66
359,905	13,77
360,27	13,88
360,634	13,94
360,999	14,02
361,363	14,15
361,728	14,27
362,092	14,34
362,456	14,38
362,821	14,42
363,185	14,46
363,549	14,55
363,913	14,64
364,277	14,74
364,641	14,79
365,005	14,9
365,369	15
365,733	15,08
366,097	15,15
366,461	15,13
366,825	15,21
367,189	15,33
367,553	15,44
367,916	15,58
368,28	15,73
368,644	15,82
369,007	15,9
369,371	15,98
369,734	16,12
370,098	16,27
370,461	16,44
370,825	16,52
371,188	16,59
371,552	16,7
371,915	16,78
372,278	16,89
372,642	16,94
373,005	17,07
373,368	17,24
373,731	17,37
374,094	17,49
374,457	17,53
374,82	17,59
375,183	17,66
375,546	17,7
375,909	17,72
376,272	17,81
376,635	17,88
376,998	17,94
377,361	17,98
377,723	18,05
378,086	18,12
378,449	18,22
378,811	18,34
379,174	18,4
379,537	18,46
379,899	18,51
380,262	18,59
380,624	18,64
380,987	18,67
381,349	18,72
381,711	18,81
382,074	18,93
382,436	19,06
382,798	19,24
383,16	19,28
383,522	19,38
383,884	19,41
384,247	19,45
384,609	19,51
384,971	19,52
385,333	19,52
385,695	19,56
386,056	19,58
386,418	19,59
386,78	19,66
387,142	19,77
387,504	19,8
387,865	19,82
388,227	19,86
388,589	19,9
388,95	19,97
389,312	19,99
389,673	20,04
390,035	20,06
390,396	20,04
390,758	20,08
391,119	20,13
391,48	20,22
391,842	20,26
392,203	20,29
392,564	20,35
392,925	20,39
393,286	20,38
393,648	20,46
394,009	20,52
394,37	20,47
394,731	20,46
395,092	20,5
395,452	20,55
395,813	20,59
396,174	20,65
396,535	20,69
396,896	20,68
397,257	20,72
397,617	20,75
397,978	20,78
398,338	20,83
398,699	20,84
399,06	20,9
399,42	20,93
399,781	20,98
400,141	21
400,501	21,06
400,862	21,11
401,222	21,1
401,582	21,1
401,943	21,14
402,303	21,16
402,663	21,18
403,023	21,2
403,383	21,26
403,743	21,24
404,103	21,22
404,463	21,28
404,823	21,3
405,183	21,36
405,543	21,38
405,903	21,39
406,262	21,43
406,622	21,41
406,982	21,41
407,342	21,41
407,701	21,44
408,061	21,44
408,42	21,47
408,78	21,5
409,139	21,54
409,499	21,59
409,858	21,6
410,217	21,64
410,577	21,66
410,936	21,63
411,295	21,67
411,655	21,68
412,014	21,72
412,373	21,72
412,732	21,67
413,091	21,68
413,45	21,68
413,809	21,66
414,168	21,63
414,527	21,64
414,886	21,62
415,245	21,61
415,603	21,59
415,962	21,59
416,321	21,56
416,679	21,54
417,038	21,52
417,397	21,51
417,755	21,49
418,114	21,47
418,472	21,46
418,831	21,44
419,189	21,44
419,547	21,41
419,906	21,43
420,264	21,42
420,622	21,39
420,981	21,4
421,339	21,39
421,697	21,39
422,055	21,39
422,413	21,4
422,771	21,41
423,129	21,43
423,487	21,43
423,845	21,45
424,203	21,45
424,56	21,46
424,918	21,48
425,276	21,51
425,634	21,55
425,991	21,58
426,349	21,62
426,707	21,66
427,064	21,7
427,422	21,72
427,779	21,78
428,137	21,86
428,494	21,93
428,851	21,98
429,209	22,05
429,566	22,08
429,923	22,14
430,28	22,13
430,637	22,17
430,995	22,19
431,352	22,21
431,709	22,23
432,066	22,27
432,423	22,29
432,78	22,31
433,137	22,31
433,493	22,31
433,85	22,34
434,207	22,34
434,564	22,32
434,92	22,32
435,277	22,31
435,634	22,28
435,99	22,27
436,347	22,26
436,703	22,25
437,06	22,25
437,416	22,25
437,773	22,24
438,129	22,22
438,485	22,24
438,841	22,25
439,198	22,27
439,554	22,25
439,91	22,25
440,266	22,26
440,622	22,26
440,978	22,27
441,334	22,25
441,69	22,26
442,046	22,26
442,402	22,26
442,758	22,27
443,113	22,29
443,469	22,27
443,825	22,28
444,181	22,3
444,536	22,32
444,892	22,32
445,247	22,34
445,603	22,36
445,958	22,35
446,314	22,37
446,669	22,37
447,025	22,4
447,38	22,41
447,735	22,41
448,09	22,42
448,446	22,43
448,801	22,44
449,156	22,46
449,511	22,47
449,866	22,48
450,221	22,5
450,576	22,52
450,931	22,58
451,286	22,6
451,641	22,62
451,995	22,63
452,35	22,69
452,705	22,73
453,06	22,76
453,414	22,79
453,769	22,8
454,123	22,85
454,478	22,89
454,832	22,91
455,187	22,92
455,541	22,91
455,896	22,91
456,25	22,89
456,604	22,9
456,958	22,91
457,313	22,9
457,667	22,89
458,021	22,88
458,375	22,88
458,729	22,89
459,083	22,92
459,437	22,93
459,791	22,92
460,145	22,92
460,499	22,94
460,852	22,95
461,206	22,98
461,56	22,96
461,914	22,95
462,267	22,94
462,621	22,95
462,974	23,01
463,328	23,04
463,681	23,07
464,035	23,09
464,388	23,11
464,742	23,14
465,095	23,18
465,448	23,2
465,801	23,21
466,155	23,23
466,508	23,24
466,861	23,26
467,214	23,25
467,567	23,26
467,92	23,24
468,273	23,22
468,626	23,22
468,979	23,22
469,332	23,21
469,684	23,24
470,037	23,26
470,39	23,25
470,743	23,26
471,095	23,26
471,448	23,26
471,8	23,28
472,153	23,33
472,505	23,33
472,858	23,35
473,21	23,37
473,562	23,38
473,915	23,36
474,267	23,33
474,619	23,34
474,971	23,33
475,324	23,34
475,676	23,36
476,028	23,35
476,38	23,37
476,732	23,37
477,084	23,35
477,436	23,33
477,787	23,32
478,139	23,33
478,491	23,33
478,843	23,33
479,195	23,31
479,546	23,29
479,898	23,33
480,249	23,38
480,601	23,41
480,952	23,4
481,304	23,38
481,655	23,34
482,007	23,31
482,358	23,28
482,709	23,26
483,061	23,24
483,412	23,24
483,763	23,24
484,114	23,26
484,465	23,26
484,816	23,27
485,167	23,27
485,518	23,25
485,869	23,24
486,22	23,23
486,571	23,23
486,922	23,23
487,272	23,2
487,623	23,17
487,974	23,14
488,324	23,13
488,675	23,14
489,025	23,17
489,376	23,18
489,726	23,2
490,077	23,23
490,427	23,24
490,778	23,24
491,128	23,23
491,478	23,22
491,828	23,22
492,179	23,21
492,529	23,23
492,879	23,27
493,229	23,3
493,579	23,33
493,929	23,34
494,279	23,36
494,629	23,38
494,979	23,38
495,328	23,36
495,678	23,37
496,028	23,4
496,378	23,44
496,727	23,48
497,077	23,5
497,426	23,52
497,776	23,52
498,125	23,52
498,475	23,54
498,824	23,55
499,174	23,54
499,523	23,56
499,872	23,56
500,221	23,56
500,571	23,57
500,92	23,57
501,269	23,59
501,618	23,6
501,967	23,62
502,316	23,63
502,665	23,64
503,014	23,66
503,363	23,66
503,711	23,66
504,06	23,68
504,409	23,7
504,758	23,71
505,106	23,7
505,455	23,73
505,803	23,74
506,152	23,73
506,5	23,75
506,849	23,74
507,197	23,74
507,546	23,74
507,894	23,77
508,242	23,77
508,59	23,75
508,939	23,72
509,287	23,71
509,635	23,72
509,983	23,74
510,331	23,71
510,679	23,72
511,027	23,74
511,375	23,74
511,723	23,75
512,07	23,76
512,418	23,82
512,766	23,83
513,114	23,84
513,461	23,87
513,809	23,87
514,156	23,89
514,504	23,9
514,851	23,92
515,199	23,9
515,546	23,87
515,893	23,88
516,241	23,88
516,588	23,88
516,935	23,88
517,282	23,87
517,63	23,89
517,977	23,9
518,324	23,91
518,671	23,91
519,018	23,92
519,365	23,91
519,711	23,91
520,058	23,92
520,405	23,92
520,752	23,91
521,099	23,9
521,445	23,9
521,792	23,91
522,138	23,89
522,485	23,89
522,832	23,94
523,178	23,96
523,524	23,96
523,871	23,99
524,217	23,98
524,563	24,01
524,91	24,03
525,256	24,06
525,602	24,07
525,948	24,07
526,294	24,04
526,64	23,99
526,986	23,95
527,332	23,9
527,678	23,88
528,024	23,88
528,37	23,9
528,716	23,89
529,061	23,9
529,407	23,92
529,753	23,92
530,098	23,92
530,444	23,92
530,789	23,93
531,135	23,92
531,48	23,91
531,826	23,89
532,171	23,86
532,516	23,82
532,862	23,79
533,207	23,8
533,552	23,82
533,897	23,87
534,242	23,89
534,587	23,94
534,932	23,98
535,277	23,97
535,622	23,97
535,967	23,98
536,312	24
536,657	23,99
537,001	24
537,346	24,01
537,691	24,02
538,035	24,04
538,38	24,08
538,724	24,09
539,069	24,1
539,413	24,1
539,758	24,1
540,102	24,1
540,446	24,05
540,791	24,04
541,135	24,04
541,479	24,04
541,823	24,04
542,167	24,04
542,512	24,05
542,856	24,04
543,2	24,04
543,543	24,04
543,887	24,04
544,231	24,04
544,575	24,03
544,919	24,01
545,262	24
545,606	23,97
545,95	23,97
546,293	23,98
546,637	23,99
546,98	24
547,324	24,02
547,667	24,08
548,011	24,09
548,354	24,11
548,697	24,14
549,04	24,15
549,384	24,15
549,727	24,16
550,07	24,17
550,413	24,18
550,756	24,16
551,099	24,18
551,442	24,18
551,785	24,21
552,128	24,23
552,47	24,23
552,813	24,23
553,156	24,25
553,499	24,24
553,841	24,26
554,184	24,26
554,526	24,26
554,869	24,24
555,211	24,24
555,554	24,19
555,896	24,15
556,238	24,13
556,581	24,11
556,923	24,08
557,265	24,08
557,607	24,07
557,949	24,07
558,291	24,06
558,633	24,03
558,975	24
559,317	23,97
559,659	23,96
560,001	23,94
560,343	23,92
560,685	23,93
561,026	23,91
561,368	23,92
561,71	23,87
562,051	23,87
562,393	23,89
562,734	23,89
563,076	23,88
563,417	23,89
563,759	23,88
564,1	23,85
564,441	23,86
564,782	23,8
565,124	23,79
565,465	23,81
565,806	23,81
566,147	23,79
566,488	23,81
566,829	23,82
567,17	23,83
567,511	23,82
567,851	23,8
568,192	23,79
568,533	23,77
568,874	23,78
569,214	23,78
569,555	23,72
569,895	23,72
570,236	23,69
570,576	23,66
570,917	23,64
571,257	23,65
571,598	23,64
571,938	23,67
572,278	23,67
572,618	23,63
572,959	23,63
573,299	23,63
573,639	23,59
573,979	23,57
574,319	23,55
574,659	23,53
574,999	23,53
575,339	23,5
575,678	23,48
576,018	23,45
576,358	23,41
576,698	23,42
577,037	23,38
577,377	23,41
577,716	23,42
578,056	23,43
578,395	23,41
578,735	23,36
579,074	23,33
579,413	23,28
579,753	23,25
580,092	23,19
580,431	23,16
580,77	23,16
581,109	23,17
581,448	23,16
581,787	23,17
582,126	23,14
582,465	23,17
582,804	23,14
583,143	23,17
583,482	23,17
583,82	23,16
584,159	23,19
584,498	23,16
584,836	23,12
585,175	23,1
585,514	23,13
585,852	23,14
586,19	23,12
586,529	23,16
586,867	23,17
587,205	23,21
587,544	23,26
587,882	23,26
588,22	23,26
588,558	23,26
588,896	23,26
589,234	23,24
589,572	23,22
589,91	23,21
590,248	23,18
590,586	23,14
590,924	23,13
591,262	23,15
591,599	23,15
591,937	23,18
592,275	23,21
592,612	23,21
592,95	23,26
593,287	23,31
593,625	23,31
593,962	23,32
594,299	23,32
594,637	23,3
594,974	23,28
595,311	23,27
595,648	23,28
595,985	23,26
596,322	23,25
596,659	23,24
596,996	23,22
597,333	23,19
597,67	23,22
598,007	23,21
598,344	23,19
598,681	23,21
599,017	23,18
599,354	23,19
599,691	23,18
600,027	23,17
600,364	23,16
600,7	23,19
601,037	23,19
601,373	23,22
601,71	23,23
602,046	23,23
602,382	23,22
602,718	23,2
603,054	23,2
603,391	23,23
603,727	23,24
604,063	23,26
604,399	23,3
604,735	23,3
605,071	23,32
605,406	23,34
605,742	23,37
606,078	23,41
606,414	23,42
606,749	23,43
607,085	23,4
607,421	23,35
607,756	23,34
608,092	23,33
608,427	23,3
608,762	23,28
609,098	23,29
609,433	23,28
609,768	23,3
610,104	23,31
610,439	23,29
610,774	23,3
611,109	23,3
611,444	23,28
611,779	23,27
612,114	23,25
612,449	23,25
612,784	23,2
613,118	23,16
613,453	23,1
613,788	23,07
614,123	23,06
614,457	23,08
614,792	23,02
615,126	22,96
615,461	22,96
615,795	22,96
616,13	22,96
616,464	22,97
616,798	22,93
617,132	22,92
617,467	22,92
617,801	22,89
618,135	22,89
618,469	22,88
618,803	22,87
619,137	22,9
619,471	22,85
619,805	22,82
620,139	22,84
620,472	22,85
620,806	22,87
621,14	22,86
621,473	22,87
621,807	22,9
622,141	22,97
622,474	22,99
622,808	22,99
623,141	23,02
623,474	23,09
623,808	23,15
624,141	23,19
624,474	23,2
624,807	23,26
625,141	23,27
625,474	23,3
625,807	23,36
626,14	23,34
626,473	23,36
626,806	23,36
627,138	23,34
627,471	23,31
627,804	23,29
628,137	23,27
628,469	23,24
628,802	23,17
629,135	23,14
629,467	23,13
629,8	23,11
630,132	23,07
630,465	23,05
630,797	23,03
631,129	22,98
631,461	22,98
631,794	22,96
632,126	22,95
632,458	22,92
632,79	22,89
633,122	22,92
633,454	22,9
633,786	22,93
634,118	22,92
634,45	22,97
634,781	22,95
635,113	22,93
635,445	22,92
635,777	22,96
636,108	22,91
636,44	22,88
636,771	22,9
637,103	22,88
637,434	22,84
637,765	22,82
638,097	22,86
638,428	22,84
638,759	22,81
639,09	22,8
639,422	22,81
639,753	22,78
640,084	22,75
640,415	22,75
640,746	22,71
641,077	22,71
641,407	22,72
641,738	22,74
642,069	22,75
642,4	22,82
642,73	22,84
643,061	22,88
643,392	22,91
643,722	22,91
644,053	22,95
644,383	22,92
644,713	22,93
645,044	22,95
645,374	22,93
645,704	22,91
646,034	22,92
646,365	22,93
646,695	22,96
647,025	23,02
647,355	23,06
647,685	23,06
648,015	23,09
648,344	23,09
648,674	23,08
649,004	23,11
649,334	23,08
649,663	23,07
649,993	23,08
650,323	23,12
650,652	23,14
650,982	23,14
651,311	23,17
651,64	23,13
651,97	23,1
652,299	23,14
652,628	23,18
652,958	23,18
653,287	23,21
653,616	23,2
653,945	23,2
654,274	23,21
654,603	23,24
654,932	23,22
655,261	23,24
655,589	23,32
655,918	23,34
656,247	23,38
656,576	23,38
656,904	23,45
657,233	23,45
657,561	23,42
657,89	23,41
658,218	23,4
658,547	23,44
658,875	23,4
659,203	23,38
659,532	23,33
659,86	23,37
660,188	23,38
660,516	23,41
660,844	23,39
661,172	23,39
661,5	23,39
661,828	23,45
662,156	23,43
662,484	23,4
662,811	23,41
663,139	23,4
663,467	23,39
663,794	23,33
664,122	23,29
664,45	23,3
664,777	23,37
665,104	23,45
665,432	23,5
665,759	23,55
666,086	23,56
666,414	23,63
666,741	23,63
667,068	23,6
667,395	23,55
667,722	23,58
668,049	23,59
668,376	23,58
668,703	23,52
669,03	23,56
669,357	23,57
669,683	23,52
670,01	23,54
670,337	23,55
670,663	23,6
670,99	23,6
671,317	23,62
671,643	23,59
671,969	23,53
672,296	23,51
672,622	23,51
672,948	23,54
673,275	23,51
673,601	23,45
673,927	23,47
674,253	23,48
674,579	23,46
674,905	23,39
675,231	23,41
675,557	23,43
675,883	23,38
676,209	23,41
676,534	23,43
676,86	23,41
677,186	23,4
677,511	23,42
677,837	23,41
678,162	23,42
678,488	23,44
678,813	23,5
679,139	23,54
679,464	23,56
679,789	23,53
680,114	23,55
680,44	23,57
680,765	23,56
681,09	23,55
681,415	23,55
681,74	23,56
682,065	23,53
682,39	23,54
682,714	23,58
683,039	23,52
683,364	23,58
683,689	23,57
684,013	23,55
684,338	23,54
684,662	23,59
684,987	23,66
685,311	23,62
685,636	23,53
685,96	23,48
686,284	23,48
686,608	23,51
686,933	23,46
687,257	23,47
687,581	23,52
687,905	23,53
688,229	23,52
688,553	23,53
688,877	23,57
689,201	23,58
689,524	23,55
689,848	23,64
690,172	23,56
690,496	23,59
690,819	23,65
691,143	23,6
691,466	23,55
691,79	23,45
692,113	23,5
692,436	23,54
692,76	23,63
693,083	23,64
693,406	23,64
693,729	23,68
694,053	23,72
694,376	23,7
694,699	23,77
695,022	23,81
695,344	23,87
695,667	23,92
695,99	24,01
696,313	24,13
696,636	24,14
696,958	24,2
697,281	24,23
697,604	24,26
697,926	24,32
698,249	24,37
698,571	24,38
698,893	24,36
699,216	24,38
699,538	24,34
699,86	24,35
700,182	24,34
700,504	24,3
700,827	24,3
701,149	24,32
701,471	24,27
701,793	24,2
702,114	24,22
702,436	24,14
702,758	24,05
703,08	23,88
703,401	23,84
703,723	23,81
704,045	23,74
704,366	23,76
704,688	23,72
705,009	23,72
705,331	23,71
705,652	23,72
705,973	23,68
706,294	23,58
706,616	23,61
706,937	23,6
707,258	23,63
707,579	23,58
707,9	23,48
708,221	23,46
708,542	23,57
708,863	23,56
709,183	23,6
709,504	23,54
709,825	23,57
710,145	23,52
710,466	23,5
710,787	23,52
711,107	23,51
711,427	23,56
711,748	23,53
712,068	23,56
712,388	23,56
712,709	23,65
713,029	23,78
713,349	23,79
713,669	23,91
713,989	23,95
714,309	24,08
714,629	24,17
714,949	24,27
715,269	24,21
715,589	24,21
715,908	24,28
716,228	24,33
716,548	24,4
716,867	24,46
717,187	24,57
717,506	24,64
717,826	24,67
718,145	24,68
718,465	24,73
718,784	24,72
719,103	24,77
719,422	24,71
719,741	24,67
720,061	24,6
720,38	24,65
720,699	24,73
721,018	24,66
721,336	24,71
721,655	24,78
721,974	24,9
722,293	25,01
722,612	25,12
722,93	25,25
723,249	25,31
723,567	25,4
723,886	25,46
724,204	25,48
724,523	25,55
724,841	25,65
725,159	25,75
725,477	25,94
725,796	26,03
726,114	26,15
726,432	26,3
726,75	26,46
727,068	26,53
727,386	26,64
727,704	26,89
728,022	27,01
728,339	27,08
728,657	27,13
728,975	27,2
729,292	27,28
729,61	27,35
729,928	27,38
730,245	27,48
730,562	27,62
730,88	27,66
731,197	27,8
731,514	27,82
731,832	27,86
732,149	27,87
732,466	27,95
732,783	28
733,1	28,01
733,417	28,11
733,734	28,11
734,051	28,1
734,368	27,99
734,684	28,06
735,001	28,11
735,318	28,23
735,634	28,34
735,951	28,35
736,268	28,49
736,584	28,57
736,9	28,62
737,217	28,55
737,533	28,67
737,849	28,77
738,166	28,92
738,482	29,13
738,798	29,35
739,114	29,55
739,43	29,75
739,746	29,89
740,062	29,92
740,378	30,1
740,693	30,29
741,009	30,48
741,325	30,55
741,641	30,57
741,956	30,57
742,272	30,61
742,587	30,68
742,903	30,74
743,218	30,81
743,533	30,82
743,849	30,9
744,164	30,92
744,479	30,97
744,794	31
745,109	31
745,424	30,95
745,739	30,83
746,054	30,73
746,369	30,63
746,684	30,69
746,999	30,67
747,313	30,56
747,628	30,61
747,943	30,69
748,257	30,75
748,572	30,98
748,886	31,07
749,201	31,24
749,515	31,33
749,829	31,47
750,144	31,61
750,458	31,73
750,772	31,83
751,086	31,98
751,4	32,04
751,714	32,03
752,028	32,13
752,342	32,21
752,656	32,5
752,97	32,67
753,284	32,86
753,597	33,01
753,911	33,21
754,225	33,29
754,538	33,31
754,852	33,33
755,165	33,32
755,478	33,3
755,792	33,29
756,105	33,25
756,418	33,33
756,731	33,41
757,045	33,55
757,358	33,63
757,671	33,52
757,984	33,51
758,297	33,57
758,609	33,55
758,922	33,59
759,235	33,42
759,548	33,26
759,86	32,98
760,173	32,82
760,486	32,63
760,798	32,38
761,111	32,2
761,423	32,2
761,735	32,2
762,048	32,27
762,36	32,29
762,672	32,31
762,984	32,28
763,296	32,33
763,608	32,36
763,92	32,43
764,232	32,52
764,544	32,61
764,856	32,65
765,168	32,72
765,48	32,82
765,791	33,01
766,103	33,21
766,414	33,51
766,726	33,8
767,037	34,16
767,349	34,63
767,66	35,15
767,972	35,6
768,283	35,96
768,594	36,17
768,905	36,38
769,216	36,55
769,527	36,73
769,838	36,8
770,149	36,96
770,46	37,18
770,771	37,38
771,082	37,61
771,393	37,77
771,703	37,91
772,014	38,03
772,324	38,06
772,635	38,32
772,945	38,44
773,256	38,39
773,566	38,38
773,877	38,32
774,187	38,11
774,497	37,97
774,807	37,94
775,117	38,09
775,427	38,31
775,737	38,52
776,047	38,66
776,357	38,68
776,667	38,4
776,977	38,33
777,287	38,33
777,596	38,23
777,906	38,22
778,216	38,25
778,525	38,27
778,835	38,41
779,144	38,42
779,453	38,52
779,763	38,77
780,072	38,77
780,381	38,99
780,69	39,27
781	39,42
781,309	39,53
781,618	39,54
781,927	39,52
782,235	39,7
782,544	39,9
782,853	40,14
783,162	40,71
783,471	40,89
783,779	41,05
784,088	41,25
784,396	41,39
784,705	41,49
785,013	41,5
785,322	41,25
785,63	41
785,938	40,61
786,246	40,35
786,554	40,58
786,863	40,53
787,171	40,46
787,479	40,47
787,787	40,6
788,094	40,79
788,402	40,75
788,71	40,77
789,018	40,65
789,326	40,5
789,633	40,29
789,941	40,41
790,248	40,38
790,556	40,42
790,863	40,55
791,171	40,73
791,478	40,79
791,785	41
792,092	41,15
792,399	41,51
792,707	41,7
793,014	41,38
793,321	41,36
793,628	41,78
793,934	42,01
794,241	41,87
794,548	41,65
794,855	41,64
795,161	41,57
795,468	41,5
795,775	41,39
796,081	41,49
796,388	41,35
796,694	41,33
797	41,21
797,307	41,2
797,613	40,93
797,919	40,78
798,225	40,86
798,531	40,91
798,837	40,96
799,143	41,02
799,449	41,14
799,755	41,05
800,061	40,92
800,367	40,92
800,672	41,13
800,978	41,41
801,284	41,56
801,589	41,64
801,895	41,85
802,2	42,24
802,506	42,4
802,811	42,46
803,116	42,47
803,421	42,59
803,727	42,56
804,032	42,87
804,337	43,35
804,642	43,48
804,947	43,82
805,252	44
805,556	44,04
805,861	44,22
806,166	44,44
806,471	44,57
806,775	44,51
807,08	44,44
807,384	44,42
807,689	44,56
807,993	44,7
808,298	44,94
808,602	45,2
808,906	45,21
809,211	45,58
809,515	45,92
809,819	46,28
810,123	46,39
810,427	46,58
810,731	46,48
811,035	46,54
811,338	46,48
811,642	46,46
811,946	46,55
812,25	46,77
812,553	46,98
812,857	47,13
813,16	47,67
813,464	48,04
813,767	48,13
814,07	47,93
814,374	47,94
814,677	47,75
814,98	47,37
815,283	47,15
815,586	46,5
815,889	45,93
816,192	45,37
816,495	45,33
816,798	45
817,101	44,55
817,404	44,2
817,706	44,05
818,009	43,84
818,312	43,51
818,614	42,41
818,917	40,85
819,219	38,83
819,521	37,02
819,824	35,61
820,126	34,66
820,428	33,85
820,73	33,33
821,032	32,9
821,334	32,71
821,636	32,57
821,938	32,59
822,24	32,56
822,542	32,5
822,844	32,44
823,145	32,39
823,447	32,42
823,749	32,33
824,05	32,2
824,352	32,11
824,653	32,01
824,955	31,97
825,256	32,07
825,557	32,24
825,858	32,4
826,16	32,66
826,461	32,92
826,762	33,36
827,063	33,79
827,364	34,32
827,665	34,75
827,965	35,14
828,266	35,37
828,567	35,68
828,868	36
829,168	36,27
829,469	36,53
829,769	36,68
830,07	36,9
830,37	37,15
830,67	37,41
830,971	37,73
831,271	38,07
831,571	38,21
831,871	38,36
832,171	38,62
832,471	38,77
832,771	38,99
833,071	39,05
833,371	38,96
833,671	39,01
833,971	38,92
834,27	38,96
834,57	39,23
834,869	39,29
835,169	39,42
835,468	39,58
835,768	39,65
836,067	39,79
836,367	40,18
836,666	40,71
836,965	41,18
837,264	41,66
837,563	42,37
837,862	43,21
838,161	44,31
838,46	45,24
838,759	46,13
839,058	46,97
839,356	47,77
839,655	48,33
839,954	48,55
840,252	49,16
840,551	49,59
840,849	49,7
841,148	50,04
841,446	50,13
841,744	50,33
842,043	50,41
842,341	50,73
842,639	51,12
842,937	51,1
843,235	51,31
843,533	51,78
843,831	52,78
844,129	53,1
844,427	53,06
844,724	53,49
845,022	54,12
845,32	54,77
845,617	55,42
845,915	56,3
846,212	57,35
846,51	58,38
846,807	59,04
847,104	59,51
847,402	60,19
847,699	61,22
847,996	62,17
848,293	63,34
848,59	63,94
848,887	63,87
849,184	64,63
849,481	65,15
849,778	65,77
850,074	65,48
850,371	66,14
850,668	66,93
850,964	67,08
851,261	67,33
851,557	67,7
851,854	68,44
852,15	69,16
852,446	69,54
852,743	69,49
853,039	69,79
853,335	70,41
853,631	70,81
853,927	70,44
854,223	69,07
854,519	67,91
854,815	67,45
855,111	67,34
855,406	66,88
855,702	66,99
855,998	67,43
856,293	67,34
856,589	67,32
856,884	67,69
857,18	68,07
857,475	68,05
857,77	67,82
858,066	67,7
858,361	66,56
858,656	66,04
858,951	65,36
859,246	65,19
859,541	64,84
859,836	65,01
860,131	64,98
860,426	65,72
860,72	66,55
861,015	66,44
861,31	66,66
861,604	67,34
861,899	67,44
862,193	66,55
862,487	67,08
862,782	67,31
863,076	67,08
863,37	67,05
863,664	66,75
863,959	66,69
864,253	66,68
864,547	68
864,841	69,06
865,135	69,86
865,428	70,44
865,722	70,63
866,016	69,88
866,31	69,98
866,603	69,5
866,897	69,18
867,19	69,1
867,484	69,13
867,777	68,51
868,07	68,85
868,364	69,86
868,657	69,94
868,95	69,9
869,243	69,78
869,536	69,64
869,829	69,66
870,122	69,92
870,415	69,76
870,708	69,15
871	68,53
871,293	68,02
871,586	67,25
871,878	66,18
872,171	65,32
872,463	64,58
872,756	65,31
873,048	65,64
873,341	65,98
873,633	65,92
873,925	66,21
874,217	65,18
874,509	63,84
874,801	63,29
875,093	62,75
875,385	62,62
875,677	62,37
875,969	62,17
