Data from zc74042_3_Reflection_00001.txt Node
Date: Thu Mar 12 14:50:35 ART 2020
User: Ana
Spectrometer: USB2E3644
Trigger mode: 4
Integration Time (sec): 5,000000E-2
Scans to average: 10
Electric dark correction enabled: true
Nonlinearity correction enabled: false
Boxcar width: 10
XAxis mode: Wavelengths
Number of Pixels in Spectrum: 2048
>>>>>Begin Spectral Data<<<<<
178,315	129,62
178,696	123,29
179,076	118,21
179,457	121,26
179,838	92,42
180,218	53,85
180,599	-73,08
180,979	60,71
181,36	-1,16
181,74	53,01
182,121	73,96
182,501	94,3
182,881	95,78
183,262	97,07
183,642	96,05
184,022	96,86
184,402	101,01
184,783	104,36
185,163	104,93
185,543	106,41
185,923	107,12
186,303	106,23
186,683	103,82
187,063	100,64
187,443	98,65
187,823	95,18
188,203	94,67
188,583	95,89
188,963	100,54
189,343	104,79
189,723	104,79
190,102	105,89
190,482	111,57
190,862	115,39
191,242	117,65
191,621	117,58
192,001	116,7
192,38	114,87
192,76	115,04
193,14	116,45
193,519	117,15
193,898	118,83
194,278	119,54
194,657	118,83
195,037	118,95
195,416	120,22
195,795	119,73
196,175	118,29
196,554	117,16
196,933	115,06
197,312	114,72
197,692	114,92
198,071	114,57
198,45	112,76
198,829	111,6
199,208	109,94
199,587	109,85
199,966	109,83
200,345	109,35
200,724	108,58
201,103	107,29
201,482	106,02
201,86	105,76
202,239	106,49
202,618	107,66
202,997	108,42
203,375	108,1
203,754	109,17
204,133	110,02
204,511	110,14
204,89	109,66
205,269	108,77
205,647	108,26
206,026	107,38
206,404	107,4
206,782	107,37
207,161	107,49
207,539	107,3
207,918	107,79
208,296	108,55
208,674	109,59
209,052	110,6
209,431	110,48
209,809	108,78
210,187	107,01
210,565	106,12
210,943	106,24
211,321	107,75
211,699	108,04
212,077	107,44
212,455	107,44
212,833	107,98
213,211	108,76
213,589	109,15
213,967	109,98
214,345	109,78
214,722	109,29
215,1	109,87
215,478	109,07
215,855	108,04
216,233	107,64
216,611	107,51
216,988	107,71
217,366	108,93
217,743	110,68
218,121	112,38
218,498	112,5
218,876	112,74
219,253	112,53
219,631	113,47
220,008	115,53
220,385	117,06
220,762	116,78
221,14	118,2
221,517	119,19
221,894	119,84
222,271	122,31
222,648	124,92
223,025	126,92
223,402	130,66
223,78	135,16
224,157	137,46
224,533	138,37
224,91	139,74
225,287	143,47
225,664	148,71
226,041	154,06
226,418	159
226,795	158,62
227,171	158,84
227,548	160,16
227,925	162,46
228,301	165,61
228,678	168,64
229,055	166,22
229,431	167,17
229,808	170,07
230,184	169,87
230,561	170,86
230,937	173,44
231,313	176,19
231,69	176,84
232,066	175,74
232,442	176,41
232,819	179,87
233,195	177,08
233,571	175,63
233,947	176,41
234,323	177,83
234,699	185,08
235,075	189,45
235,451	192,79
235,827	195,25
236,203	195,6
236,579	200,7
236,955	213,72
237,331	225,78
237,707	241,02
238,083	270,66
238,459	320,59
238,834	405,29
239,21	568,99
239,586	900,45
239,961	1826,36
240,337	5563,89
240,713	-11038,89
241,088	-3101,56
241,464	-2271,59
241,839	-1699,15
242,215	-1008,59
242,59	-583,33
242,965	-320,48
243,341	-190,34
243,716	-128,43
244,091	-101,82
244,467	-88,1
244,842	-79,26
245,217	-72,49
245,592	-68,55
245,967	-68,4
246,343	-68,58
246,718	-69,03
247,093	-71,96
247,468	-73,63
247,843	-73,26
248,218	-70,59
248,593	-65,93
248,967	-61,2
249,342	-58,73
249,717	-57,28
250,092	-56,79
250,467	-57,62
250,841	-61,47
251,216	-69,31
251,591	-82,44
251,965	-95,13
252,34	-103,98
252,714	-114,38
253,089	-122,57
253,463	-129,68
253,838	-128,7
254,212	-123,2
254,587	-115,15
254,961	-100,7
255,335	-86,5
255,71	-72,81
256,084	-58,17
256,458	-47,6
256,832	-40,9
257,206	-36,72
257,581	-34,2
257,955	-32,67
258,329	-31,49
258,703	-30,21
259,077	-29,2
259,451	-27,99
259,825	-27,45
260,199	-27,67
260,572	-27,52
260,946	-27,53
261,32	-27,03
261,694	-26,35
262,068	-26,04
262,441	-25,77
262,815	-25,68
263,189	-25,43
263,562	-25,71
263,936	-27,62
264,309	-30,74
264,683	-33,76
265,056	-35,33
265,43	-36,38
265,803	-36,61
266,176	-36,24
266,55	-35,95
266,923	-35,5
267,296	-34,67
267,67	-33,09
268,043	-31,69
268,416	-29,59
268,789	-27,67
269,162	-26,23
269,535	-24,88
269,908	-23,7
270,281	-22,81
270,654	-22,56
271,027	-23,25
271,4	-23,49
271,773	-23,31
272,146	-22,9
272,519	-22,69
272,891	-22,74
273,264	-22,85
273,637	-23,03
274,01	-22,98
274,382	-23,52
274,755	-23,93
275,127	-24,44
275,5	-24,89
275,872	-25,03
276,245	-25,35
276,617	-25,9
276,99	-26,22
277,362	-27,16
277,734	-27,74
278,107	-27,83
278,479	-27,65
278,851	-27,05
279,223	-26,64
279,596	-26,03
279,968	-25,78
280,34	-25,45
280,712	-24,91
281,084	-23,66
281,456	-22,34
281,828	-21,23
282,2	-19,65
282,572	-18,37
282,944	-17,43
283,315	-16,86
283,687	-16,39
284,059	-16,17
284,431	-15,87
284,802	-15,39
285,174	-14,71
285,546	-14,2
285,917	-13,73
286,289	-13,21
286,66	-12,7
287,032	-12,22
287,403	-12,01
287,775	-11,96
288,146	-11,99
288,518	-12,06
288,889	-12,06
289,26	-12,17
289,632	-12,53
290,003	-13,06
290,374	-13,36
290,745	-13,37
291,116	-13,41
291,487	-13,38
291,858	-13,27
292,229	-13,28
292,6	-13,21
292,971	-12,89
293,342	-12,47
293,713	-12,07
294,084	-11,72
294,455	-11,26
294,826	-11,04
295,196	-11,13
295,567	-11,29
295,938	-11,32
296,308	-11,07
296,679	-10,96
297,05	-10,7
297,42	-10,24
297,791	-9,69
298,161	-9,45
298,532	-9,32
298,902	-9,11
299,272	-8,95
299,643	-8,87
300,013	-8,52
300,383	-8,39
300,754	-8,5
301,124	-8,7
301,494	-9,03
301,864	-9,42
302,234	-9,88
302,604	-10,01
302,974	-9,96
303,344	-9,66
303,714	-9,23
304,084	-8,88
304,454	-8,79
304,824	-8,71
305,194	-8,72
305,563	-8,74
305,933	-8,53
306,303	-8,17
306,673	-7,74
307,042	-7,29
307,412	-6,78
307,781	-6,39
308,151	-6,12
308,521	-5,92
308,89	-5,72
309,259	-5,69
309,629	-5,6
309,998	-5,41
310,368	-5,45
310,737	-5,41
311,106	-5,31
311,475	-5,21
311,845	-5,27
312,214	-5,21
312,583	-5,25
312,952	-5,4
313,321	-5,51
313,69	-5,43
314,059	-5,46
314,428	-5,61
314,797	-5,73
315,166	-5,91
315,535	-6,25
315,904	-6,53
316,272	-6,76
316,641	-6,87
317,01	-6,68
317,379	-6,47
317,747	-6,3
318,116	-5,92
318,484	-5,56
318,853	-5,52
319,221	-5,58
319,59	-5,67
319,958	-5,69
320,327	-5,58
320,695	-5,32
321,063	-5,11
321,432	-4,93
321,8	-4,74
322,168	-4,65
322,536	-4,73
322,905	-4,59
323,273	-4,31
323,641	-4,03
324,009	-3,7
324,377	-3,52
324,745	-3,3
325,113	-3,04
325,481	-2,79
325,849	-2,67
326,216	-2,65
326,584	-2,51
326,952	-2,44
327,32	-2,23
327,687	-1,98
328,055	-1,68
328,423	-1,46
328,79	-1,23
329,158	-1,19
329,525	-1,29
329,893	-1,19
330,26	-0,87
330,628	-0,71
330,995	-0,64
331,362	-0,57
331,73	-0,56
332,097	-0,5
332,464	-0,5
332,831	-0,47
333,199	-0,45
333,566	-0,39
333,933	-0,28
334,3	-0,1
334,667	0,02
335,034	0,05
335,401	0
335,768	-0,11
336,135	-0,14
336,502	-0,18
336,868	-0,17
337,235	-0,08
337,602	-0,01
337,969	-0,05
338,335	-0,01
338,702	0,13
339,069	0,15
339,435	0,14
339,802	0,25
340,168	0,33
340,535	0,35
340,901	0,24
341,267	0,19
341,634	0,25
342	0,25
342,366	0,38
342,733	0,48
343,099	0,57
343,465	0,65
343,831	0,63
344,197	0,65
344,563	0,69
344,929	0,72
345,295	0,76
345,661	0,85
346,027	0,9
346,393	0,88
346,759	0,98
347,125	1,11
347,491	1,2
347,856	1,23
348,222	1,25
348,588	1,41
348,953	1,49
349,319	1,44
349,684	1,48
350,05	1,52
350,415	1,61
350,781	1,7
351,146	1,8
351,512	1,87
351,877	1,92
352,242	1,93
352,608	2,02
352,973	2,15
353,338	2,23
353,703	2,34
354,068	2,41
354,433	2,45
354,798	2,51
355,164	2,57
355,528	2,64
355,893	2,67
356,258	2,63
356,623	2,72
356,988	2,88
357,353	2,99
357,718	3,01
358,082	3,03
358,447	3,06
358,812	3,17
359,176	3,27
359,541	3,38
359,905	3,51
360,27	3,54
360,634	3,52
360,999	3,55
361,363	3,59
361,728	3,64
362,092	3,72
362,456	3,75
362,821	3,79
363,185	3,87
363,549	4,01
363,913	4,12
364,277	4,16
364,641	4,16
365,005	4,24
365,369	4,35
365,733	4,46
366,097	4,55
366,461	4,61
366,825	4,69
367,189	4,73
367,553	4,8
367,916	4,92
368,28	5,01
368,644	5,06
369,007	5,16
369,371	5,27
369,734	5,38
370,098	5,46
370,461	5,53
370,825	5,56
371,188	5,62
371,552	5,72
371,915	5,79
372,278	5,87
372,642	5,93
373,005	6
373,368	6,13
373,731	6,19
374,094	6,24
374,457	6,3
374,82	6,41
375,183	6,49
375,546	6,56
375,909	6,63
376,272	6,77
376,635	6,83
376,998	6,86
377,361	6,86
377,723	6,91
378,086	6,97
378,449	7,02
378,811	7,03
379,174	7,08
379,537	7,13
379,899	7,2
380,262	7,22
380,624	7,27
380,987	7,31
381,349	7,37
381,711	7,46
382,074	7,53
382,436	7,6
382,798	7,66
383,16	7,67
383,522	7,71
383,884	7,73
384,247	7,76
384,609	7,81
384,971	7,88
385,333	7,92
385,695	7,95
386,056	8,01
386,418	8,08
386,78	8,09
387,142	8,07
387,504	8,05
387,865	8,08
388,227	8,06
388,589	8,05
388,95	8,06
389,312	7,99
389,673	7,95
390,035	7,93
390,396	7,94
390,758	7,98
391,119	8,01
391,48	8,06
391,842	8,08
392,203	8,08
392,564	8,1
392,925	8,12
393,286	8,16
393,648	8,16
394,009	8,18
394,37	8,2
394,731	8,25
395,092	8,28
395,452	8,29
395,813	8,33
396,174	8,34
396,535	8,35
396,896	8,37
397,257	8,42
397,617	8,46
397,978	8,47
398,338	8,49
398,699	8,5
399,06	8,53
399,42	8,51
399,781	8,53
400,141	8,53
400,501	8,57
400,862	8,55
401,222	8,54
401,582	8,55
401,943	8,57
402,303	8,59
402,663	8,6
403,023	8,62
403,383	8,67
403,743	8,7
404,103	8,73
404,463	8,77
404,823	8,82
405,183	8,83
405,543	8,86
405,903	8,86
406,262	8,86
406,622	8,81
406,982	8,82
407,342	8,83
407,701	8,86
408,061	8,85
408,42	8,88
408,78	8,92
409,139	8,93
409,499	8,9
409,858	8,89
410,217	8,91
410,577	8,9
410,936	8,86
411,295	8,84
411,655	8,82
412,014	8,79
412,373	8,73
412,732	8,7
413,091	8,66
413,45	8,63
413,809	8,61
414,168	8,58
414,527	8,53
414,886	8,48
415,245	8,43
415,603	8,38
415,962	8,34
416,321	8,31
416,679	8,24
417,038	8,22
417,397	8,17
417,755	8,13
418,114	8,08
418,472	8,07
418,831	8,04
419,189	8,04
419,547	8,01
419,906	8
420,264	7,97
420,622	7,96
420,981	7,94
421,339	7,93
421,697	7,93
422,055	7,95
422,413	7,96
422,771	7,97
423,129	8
423,487	8,02
423,845	8,03
424,203	8,06
424,56	8,08
424,918	8,12
425,276	8,15
425,634	8,2
425,991	8,22
426,349	8,26
426,707	8,29
427,064	8,34
427,422	8,37
427,779	8,43
428,137	8,48
428,494	8,56
428,851	8,59
429,209	8,62
429,566	8,61
429,923	8,61
430,28	8,59
430,637	8,58
430,995	8,57
431,352	8,56
431,709	8,55
432,066	8,55
432,423	8,54
432,78	8,52
433,137	8,52
433,493	8,52
433,85	8,53
434,207	8,5
434,564	8,49
434,92	8,47
435,277	8,44
435,634	8,43
435,99	8,4
436,347	8,39
436,703	8,4
437,06	8,4
437,416	8,42
437,773	8,4
438,129	8,38
438,485	8,39
438,841	8,38
439,198	8,38
439,554	8,38
439,91	8,38
440,266	8,4
440,622	8,4
440,978	8,39
441,334	8,36
441,69	8,36
442,046	8,35
442,402	8,35
442,758	8,36
443,113	8,35
443,469	8,33
443,825	8,32
444,181	8,31
444,536	8,33
444,892	8,33
445,247	8,36
445,603	8,36
445,958	8,37
446,314	8,38
446,669	8,39
447,025	8,41
447,38	8,41
447,735	8,41
448,09	8,43
448,446	8,45
448,801	8,46
449,156	8,49
449,511	8,52
449,866	8,53
450,221	8,55
450,576	8,59
450,931	8,64
451,286	8,66
451,641	8,7
451,995	8,72
452,35	8,75
452,705	8,76
453,06	8,78
453,414	8,81
453,769	8,83
454,123	8,83
454,478	8,84
454,832	8,84
455,187	8,82
455,541	8,79
455,896	8,76
456,25	8,73
456,604	8,69
456,958	8,65
457,313	8,65
457,667	8,64
458,021	8,65
458,375	8,63
458,729	8,67
459,083	8,66
459,437	8,67
459,791	8,66
460,145	8,67
460,499	8,67
460,852	8,66
461,206	8,65
461,56	8,65
461,914	8,64
462,267	8,64
462,621	8,66
462,974	8,66
463,328	8,69
463,681	8,72
464,035	8,75
464,388	8,8
464,742	8,82
465,095	8,83
465,448	8,83
465,801	8,83
466,155	8,8
466,508	8,8
466,861	8,8
467,214	8,8
467,567	8,78
467,92	8,79
468,273	8,8
468,626	8,8
468,979	8,81
469,332	8,81
469,684	8,83
470,037	8,83
470,39	8,85
470,743	8,85
471,095	8,87
471,448	8,87
471,8	8,88
472,153	8,88
472,505	8,87
472,858	8,89
473,21	8,91
473,562	8,93
473,915	8,92
474,267	8,94
474,619	8,94
474,971	8,94
475,324	8,93
475,676	8,95
476,028	8,95
476,38	8,94
476,732	8,95
477,084	8,95
477,436	8,93
477,787	8,93
478,139	8,92
478,491	8,91
478,843	8,9
479,195	8,89
479,546	8,85
479,898	8,81
480,249	8,75
480,601	8,7
480,952	8,66
481,304	8,65
481,655	8,63
482,007	8,6
482,358	8,58
482,709	8,56
483,061	8,54
483,412	8,53
483,763	8,53
484,114	8,52
484,465	8,5
484,816	8,5
485,167	8,49
485,518	8,49
485,869	8,49
486,22	8,49
486,571	8,49
486,922	8,5
487,272	8,51
487,623	8,52
487,974	8,53
488,324	8,53
488,675	8,53
489,025	8,55
489,376	8,56
489,726	8,58
490,077	8,61
490,427	8,63
490,778	8,64
491,128	8,64
491,478	8,65
491,828	8,7
492,179	8,71
492,529	8,74
492,879	8,76
493,229	8,77
493,579	8,78
493,929	8,8
494,279	8,81
494,629	8,83
494,979	8,84
495,328	8,87
495,678	8,91
496,028	8,95
496,378	8,98
496,727	9,01
497,077	9,02
497,426	9,03
497,776	9,02
498,125	9,04
498,475	9,05
498,824	9,06
499,174	9,05
499,523	9,06
499,872	9,07
500,221	9,08
500,571	9,08
500,92	9,09
501,269	9,09
501,618	9,09
501,967	9,09
502,316	9,12
502,665	9,12
503,014	9,12
503,363	9,12
503,711	9,11
504,06	9,12
504,409	9,13
504,758	9,11
505,106	9,12
505,455	9,11
505,803	9,12
506,152	9,09
506,5	9,09
506,849	9,09
507,197	9,08
507,546	9,07
507,894	9,08
508,242	9,08
508,59	9,07
508,939	9,07
509,287	9,07
509,635	9,06
509,983	9,06
510,331	9,07
510,679	9,08
511,027	9,08
511,375	9,08
511,723	9,08
512,07	9,09
512,418	9,12
512,766	9,13
513,114	9,14
513,461	9,17
513,809	9,18
514,156	9,18
514,504	9,18
514,851	9,19
515,199	9,17
515,546	9,16
515,893	9,15
516,241	9,16
516,588	9,15
516,935	9,16
517,282	9,15
517,63	9,17
517,977	9,16
518,324	9,17
518,671	9,16
519,018	9,19
519,365	9,2
519,711	9,2
520,058	9,22
520,405	9,2
520,752	9,2
521,099	9,21
521,445	9,21
521,792	9,24
522,138	9,22
522,485	9,23
522,832	9,23
523,178	9,25
523,524	9,25
523,871	9,26
524,217	9,24
524,563	9,24
524,91	9,21
525,256	9,18
525,602	9,14
525,948	9,13
526,294	9,11
526,64	9,08
526,986	9,06
527,332	9,05
527,678	9,05
528,024	9,05
528,37	9,05
528,716	9,05
529,061	9,05
529,407	9,05
529,753	9,05
530,098	9,05
530,444	9,05
530,789	9,05
531,135	9,04
531,48	9,04
531,826	9,04
532,171	9,06
532,516	9,08
532,862	9,1
533,207	9,11
533,552	9,11
533,897	9,13
534,242	9,14
534,587	9,15
534,932	9,16
535,277	9,16
535,622	9,17
535,967	9,19
536,312	9,19
536,657	9,22
537,001	9,22
537,346	9,23
537,691	9,24
538,035	9,25
538,38	9,23
538,724	9,23
539,069	9,22
539,413	9,23
539,758	9,21
540,102	9,21
540,446	9,21
540,791	9,21
541,135	9,2
541,479	9,22
541,823	9,21
542,167	9,22
542,512	9,22
542,856	9,21
543,2	9,21
543,543	9,2
543,887	9,2
544,231	9,22
544,575	9,24
544,919	9,24
545,262	9,27
545,606	9,29
545,95	9,31
546,293	9,33
546,637	9,33
546,98	9,36
547,324	9,37
547,667	9,42
548,011	9,44
548,354	9,45
548,697	9,44
549,04	9,46
549,384	9,46
549,727	9,45
550,07	9,46
550,413	9,44
550,756	9,45
551,099	9,43
551,442	9,42
551,785	9,41
552,128	9,41
552,47	9,38
552,813	9,38
553,156	9,37
553,499	9,36
553,841	9,37
554,184	9,36
554,526	9,37
554,869	9,32
555,211	9,32
555,554	9,32
555,896	9,31
556,238	9,28
556,581	9,25
556,923	9,2
557,265	9,18
557,607	9,17
557,949	9,15
558,291	9,15
558,633	9,14
558,975	9,12
559,317	9,11
559,659	9,12
560,001	9,12
560,343	9,11
560,685	9,08
561,026	9,04
561,368	9,02
561,71	9
562,051	8,99
562,393	8,96
562,734	8,92
563,076	8,92
563,417	8,91
563,759	8,92
564,1	8,93
564,441	8,92
564,782	8,91
565,124	8,89
565,465	8,88
565,806	8,86
566,147	8,85
566,488	8,83
566,829	8,79
567,17	8,77
567,511	8,76
567,851	8,77
568,192	8,76
568,533	8,75
568,874	8,75
569,214	8,74
569,555	8,73
569,895	8,72
570,236	8,7
570,576	8,68
570,917	8,66
571,257	8,65
571,598	8,66
571,938	8,66
572,278	8,65
572,618	8,64
572,959	8,64
573,299	8,63
573,639	8,63
573,979	8,62
574,319	8,6
574,659	8,59
574,999	8,56
575,339	8,53
575,678	8,53
576,018	8,48
576,358	8,47
576,698	8,47
577,037	8,47
577,377	8,47
577,716	8,47
578,056	8,46
578,395	8,44
578,735	8,42
579,074	8,41
579,413	8,4
579,753	8,37
580,092	8,31
580,431	8,29
580,77	8,25
581,109	8,22
581,448	8,22
581,787	8,18
582,126	8,18
582,465	8,19
582,804	8,19
583,143	8,2
583,482	8,21
583,82	8,21
584,159	8,2
584,498	8,17
584,836	8,18
585,175	8,16
585,514	8,18
585,852	8,18
586,19	8,17
586,529	8,18
586,867	8,18
587,205	8,19
587,544	8,2
587,882	8,21
588,22	8,25
588,558	8,27
588,896	8,3
589,234	8,32
589,572	8,33
589,91	8,31
590,248	8,3
590,586	8,28
590,924	8,26
591,262	8,26
591,599	8,24
591,937	8,23
592,275	8,23
592,612	8,21
592,95	8,22
593,287	8,23
593,625	8,25
593,962	8,25
594,299	8,28
594,637	8,32
594,974	8,35
595,311	8,35
595,648	8,35
595,985	8,36
596,322	8,32
596,659	8,32
596,996	8,32
597,333	8,32
597,67	8,33
598,007	8,36
598,344	8,38
598,681	8,4
599,017	8,41
599,354	8,41
599,691	8,42
600,027	8,42
600,364	8,44
600,7	8,45
601,037	8,48
601,373	8,48
601,71	8,48
602,046	8,49
602,382	8,47
602,718	8,49
603,054	8,49
603,391	8,52
603,727	8,52
604,063	8,53
604,399	8,56
604,735	8,57
605,071	8,58
605,406	8,58
605,742	8,59
606,078	8,6
606,414	8,62
606,749	8,65
607,085	8,66
607,421	8,68
607,756	8,68
608,092	8,67
608,427	8,67
608,762	8,66
609,098	8,65
609,433	8,64
609,768	8,62
610,104	8,61
610,439	8,6
610,774	8,62
611,109	8,62
611,444	8,59
611,779	8,55
612,114	8,53
612,449	8,54
612,784	8,51
613,118	8,5
613,453	8,47
613,788	8,44
614,123	8,39
614,457	8,33
614,792	8,29
615,126	8,29
615,461	8,28
615,795	8,27
616,13	8,25
616,464	8,23
616,798	8,22
617,132	8,23
617,467	8,23
617,801	8,2
618,135	8,2
618,469	8,2
618,803	8,23
619,137	8,23
619,471	8,22
619,805	8,24
620,139	8,26
620,472	8,27
620,806	8,26
621,14	8,28
621,473	8,26
621,807	8,24
622,141	8,25
622,474	8,26
622,808	8,26
623,141	8,24
623,474	8,29
623,808	8,32
624,141	8,32
624,474	8,37
624,807	8,38
625,141	8,42
625,474	8,45
625,807	8,47
626,14	8,48
626,473	8,47
626,806	8,47
627,138	8,47
627,471	8,44
627,804	8,45
628,137	8,47
628,469	8,48
628,802	8,51
629,135	8,51
629,467	8,52
629,8	8,53
630,132	8,56
630,465	8,58
630,797	8,59
631,129	8,59
631,461	8,55
631,794	8,57
632,126	8,55
632,458	8,54
632,79	8,55
633,122	8,56
633,454	8,56
633,786	8,54
634,118	8,51
634,45	8,54
634,781	8,52
635,113	8,52
635,445	8,51
635,777	8,51
636,108	8,51
636,44	8,5
636,771	8,5
637,103	8,47
637,434	8,45
637,765	8,43
638,097	8,43
638,428	8,42
638,759	8,41
639,09	8,39
639,422	8,42
639,753	8,42
640,084	8,4
640,415	8,37
640,746	8,38
641,077	8,45
641,407	8,44
641,738	8,46
642,069	8,47
642,4	8,51
642,73	8,53
643,061	8,54
643,392	8,53
643,722	8,55
644,053	8,59
644,383	8,57
644,713	8,58
645,044	8,58
645,374	8,59
645,704	8,6
646,034	8,64
646,365	8,61
646,695	8,58
647,025	8,6
647,355	8,64
647,685	8,65
648,015	8,63
648,344	8,65
648,674	8,64
649,004	8,61
649,334	8,62
649,663	8,65
649,993	8,65
650,323	8,68
650,652	8,66
650,982	8,65
651,311	8,65
651,64	8,6
651,97	8,58
652,299	8,6
652,628	8,63
652,958	8,61
653,287	8,64
653,616	8,68
653,945	8,69
654,274	8,75
654,603	8,76
654,932	8,74
655,261	8,76
655,589	8,82
655,918	8,89
656,247	8,93
656,576	8,93
656,904	8,96
657,233	8,97
657,561	8,98
657,89	9,03
658,218	9,07
658,547	9,13
658,875	9,16
659,203	9,16
659,532	9,14
659,86	9,19
660,188	9,2
660,516	9,22
660,844	9,24
661,172	9,21
661,5	9,21
661,828	9,22
662,156	9,21
662,484	9,19
662,811	9,16
663,139	9,11
663,467	9,09
663,794	9,04
664,122	9,07
664,45	9,06
664,777	9,01
665,104	8,99
665,432	8,96
665,759	8,98
666,086	8,99
666,414	8,99
666,741	8,96
667,068	8,96
667,395	8,93
667,722	8,91
668,049	8,91
668,376	8,92
668,703	8,95
669,03	8,97
669,357	8,95
669,683	8,92
670,01	8,94
670,337	8,92
670,663	8,95
670,99	8,92
671,317	8,94
671,643	8,94
671,969	8,93
672,296	8,94
672,622	8,91
672,948	8,89
673,275	8,84
673,601	8,8
673,927	8,72
674,253	8,7
674,579	8,69
674,905	8,66
675,231	8,64
675,557	8,62
675,883	8,6
676,209	8,67
676,534	8,73
676,86	8,78
677,186	8,87
677,511	8,88
677,837	8,92
678,162	8,92
678,488	8,99
678,813	9,03
679,139	9,06
679,464	9,11
679,789	9,16
680,114	9,24
680,44	9,31
680,765	9,34
681,09	9,34
681,415	9,35
681,74	9,41
682,065	9,45
682,39	9,48
682,714	9,48
683,039	9,48
683,364	9,49
683,689	9,44
684,013	9,37
684,338	9,36
684,662	9,31
684,987	9,28
685,311	9,25
685,636	9,25
685,96	9,25
686,284	9,23
686,608	9,21
686,933	9,21
687,257	9,2
687,581	9,22
687,905	9,25
688,229	9,27
688,553	9,24
688,877	9,22
689,201	9,24
689,524	9,27
689,848	9,27
690,172	9,22
690,496	9,25
690,819	9,26
691,143	9,28
691,466	9,31
691,79	9,34
692,113	9,35
692,436	9,31
692,76	9,32
693,083	9,29
693,406	9,23
693,729	9,15
694,053	9,13
694,376	9,13
694,699	9,11
695,022	9,12
695,344	9,16
695,667	9,2
695,99	9,26
696,313	9,32
696,636	9,39
696,958	9,5
697,281	9,56
697,604	9,6
697,926	9,62
698,249	9,64
698,571	9,62
698,893	9,6
699,216	9,6
699,538	9,58
699,86	9,57
700,182	9,59
700,504	9,61
700,827	9,59
701,149	9,57
701,471	9,56
701,793	9,53
702,114	9,5
702,436	9,47
702,758	9,35
703,08	9,23
703,401	9,13
703,723	9,03
704,045	8,96
704,366	8,9
704,688	8,86
705,009	8,86
705,331	8,94
705,652	9,01
705,973	9,02
706,294	9,01
706,616	9,07
706,937	9,11
707,258	9,12
707,579	9,15
707,9	9,2
708,221	9,25
708,542	9,34
708,863	9,4
709,183	9,46
709,504	9,53
709,825	9,59
710,145	9,65
710,466	9,72
710,787	9,75
711,107	9,79
711,427	9,83
711,748	9,81
712,068	9,84
712,388	9,88
712,709	9,99
713,029	10,05
713,349	10,07
713,669	10,09
713,989	10,14
714,309	10,25
714,629	10,34
714,949	10,45
715,269	10,48
715,589	10,48
715,908	10,49
716,228	10,5
716,548	10,53
716,867	10,5
717,187	10,46
717,506	10,54
717,826	10,56
718,145	10,61
718,465	10,72
718,784	10,71
719,103	10,73
719,422	10,71
719,741	10,79
720,061	10,85
720,38	10,97
720,699	11,04
721,018	11,04
721,336	11,12
721,655	11,26
721,974	11,38
722,293	11,45
722,612	11,59
722,93	11,73
723,249	11,93
723,567	12,12
723,886	12,23
724,204	12,33
724,523	12,52
724,841	12,67
725,159	12,79
725,477	12,9
725,796	12,99
726,114	13,16
726,432	13,27
726,75	13,48
727,068	13,63
727,386	13,81
727,704	13,99
728,022	14,05
728,339	14,08
728,657	14,12
728,975	14,2
729,292	14,23
729,61	14,24
729,928	14,22
730,245	14,25
730,562	14,38
730,88	14,44
731,197	14,5
731,514	14,47
731,832	14,49
732,149	14,62
732,466	14,76
732,783	14,79
733,1	14,82
733,417	14,88
733,734	14,98
734,051	15,04
734,368	15,07
734,684	15,14
735,001	15,18
735,318	15,31
735,634	15,41
735,951	15,51
736,268	15,67
736,584	15,81
736,9	15,96
737,217	16
737,533	16,07
737,849	16,19
738,166	16,39
738,482	16,57
738,798	16,72
739,114	16,88
739,43	17,05
739,746	17,14
740,062	17,2
740,378	17,21
740,693	17,27
741,009	17,47
741,325	17,66
741,641	17,76
741,956	17,83
742,272	17,98
742,587	18,19
742,903	18,36
743,218	18,45
743,533	18,56
743,849	18,65
744,164	18,79
744,479	18,93
744,794	19,08
745,109	19,17
745,424	19,21
745,739	19,18
746,054	19,17
746,369	19,26
746,684	19,36
746,999	19,49
747,313	19,47
747,628	19,42
747,943	19,34
748,257	19,36
748,572	19,5
748,886	19,55
749,201	19,63
749,515	19,66
749,829	19,73
750,144	19,81
750,458	19,91
750,772	19,97
751,086	20,03
751,4	20,01
751,714	20,03
752,028	20,08
752,342	20,09
752,656	20,09
752,97	20,12
753,284	20,17
753,597	20,15
753,911	20,27
754,225	20,35
754,538	20,4
754,852	20,46
755,165	20,49
755,478	20,52
755,792	20,55
756,105	20,6
756,418	20,72
756,731	20,77
757,045	20,8
757,358	20,94
757,671	20,89
757,984	20,95
758,297	20,93
758,609	20,86
758,922	20,91
759,235	21,09
759,548	21,09
759,86	20,9
760,173	20,77
760,486	20,61
760,798	20,45
761,111	20,37
761,423	20,23
761,735	20,13
762,048	20,16
762,36	20,16
762,672	20,19
762,984	20,22
763,296	20,29
763,608	20,35
763,92	20,42
764,232	20,59
764,544	20,71
764,856	20,86
765,168	21,04
765,48	21,15
765,791	21,18
766,103	21,35
766,414	21,64
766,726	21,99
767,037	22,33
767,349	22,78
767,66	23,2
767,972	23,78
768,283	24,32
768,594	24,67
768,905	25
769,216	25,27
769,527	25,54
769,838	25,76
770,149	26,04
770,46	26,15
770,771	26,28
771,082	26,44
771,393	26,66
771,703	26,85
772,014	27,14
772,324	27,36
772,635	27,44
772,945	27,55
773,256	27,75
773,566	27,96
773,877	28,09
774,187	28,05
774,497	27,93
774,807	27,95
775,117	28,08
775,427	28,06
775,737	28,1
776,047	28,1
776,357	28,26
776,667	28,43
776,977	28,64
777,287	28,81
777,596	28,88
777,906	28,92
778,216	29,09
778,525	29,18
778,835	29,2
779,144	29,78
779,453	30,17
779,763	30,2
780,072	30,22
780,381	30,41
780,69	30,75
781	30,82
781,309	30,71
781,618	30,7
781,927	30,86
782,235	31,09
782,544	31,36
782,853	31,63
783,162	31,71
783,471	31,57
783,779	31,6
784,088	31,64
784,396	31,61
784,705	31,54
785,013	31,59
785,322	31,66
785,63	31,08
785,938	30,52
786,246	30,24
786,554	30,27
786,863	30,12
787,171	30,04
787,479	30,22
787,787	30,37
788,094	30,52
788,402	30,57
788,71	30,64
789,018	30,6
789,326	30,36
789,633	30,35
789,941	30,53
790,248	30,5
790,556	30,61
790,863	30,8
791,171	30,86
791,478	30,84
791,785	30,95
792,092	31,06
792,399	31,44
792,707	31,89
793,014	31,91
793,321	32,06
793,628	32,29
793,934	32,5
794,241	32,64
794,548	32,59
794,855	32,75
795,161	32,98
795,468	32,99
795,775	33,06
796,081	33,3
796,388	33,35
796,694	33,35
797	33,22
797,307	33,36
797,613	33,39
797,919	33,49
798,225	33,43
798,531	33,42
798,837	33,37
799,143	33,19
799,449	33,21
799,755	33,18
800,061	33,35
800,367	33,44
800,672	33,46
800,978	33,73
801,284	33,81
801,589	33,6
801,895	33,67
802,2	33,93
802,506	34
802,811	34,03
803,116	34,36
803,421	34,72
803,727	34,6
804,032	34,7
804,337	34,72
804,642	34,86
804,947	35,19
805,252	35,48
805,556	35,79
805,861	36,09
806,166	36,31
806,471	36,34
806,775	36,58
807,08	36,74
807,384	36,77
807,689	36,99
807,993	37,21
808,298	37,5
808,602	37,63
808,906	37,69
809,211	37,99
809,515	38,21
809,819	38,33
810,123	38,47
810,427	38,69
810,731	38,86
811,035	38,95
811,338	38,89
811,642	38,93
811,946	38,91
812,25	39,03
812,553	39,05
812,857	39,12
813,16	38,86
813,464	38,71
813,767	38,74
814,07	38,56
814,374	38,48
814,677	38,11
814,98	37,88
815,283	37,57
815,586	37,27
815,889	36,75
816,192	36,39
816,495	36,24
816,798	35,82
817,101	35,45
817,404	35,16
817,706	34,82
818,009	34,28
818,312	33,69
818,614	32,53
818,917	31,05
819,219	29,07
819,521	27,26
819,824	25,71
820,126	24,48
820,428	23,63
820,73	23,04
821,032	22,57
821,334	22,16
821,636	21,91
821,938	21,73
822,24	21,63
822,542	21,54
822,844	21,53
823,145	21,55
823,447	21,49
823,749	21,36
824,05	21,25
824,352	21,17
824,653	21,12
824,955	21,11
825,256	21,11
825,557	21,18
825,858	21,4
826,16	21,76
826,461	22,17
826,762	22,61
827,063	23,13
827,364	23,71
827,665	24,26
827,965	24,74
828,266	25,22
828,567	25,65
828,868	25,95
829,168	26,07
829,469	26,12
829,769	26,34
830,07	26,71
830,37	27,12
830,67	27,55
830,971	27,82
831,271	28,07
831,571	28,44
831,871	28,93
832,171	29,28
832,471	29,3
832,771	29,34
833,071	29,17
833,371	28,95
833,671	28,84
833,971	28,84
834,27	28,98
834,57	29,04
834,869	29,15
835,169	29,31
835,468	29,58
835,768	29,88
836,067	30,18
836,367	30,51
836,666	30,99
836,965	31,33
837,264	31,91
837,563	32,56
837,862	33,18
838,161	33,8
838,46	34,46
838,759	35,19
839,058	36,04
839,356	37,29
839,655	38,2
839,954	38,76
840,252	39,62
840,551	40,31
840,849	41,01
841,148	41,46
841,446	41,99
841,744	42,21
842,043	42,52
842,341	42,97
842,639	43,59
842,937	43,71
843,235	44,5
843,533	45,15
843,831	46,48
844,129	47,5
844,427	48,37
844,724	49,43
845,022	51,03
845,32	52,05
845,617	52,86
845,915	53,7
846,212	54,62
846,51	55,62
846,807	56,11
847,104	56,11
847,402	56,59
847,699	57,45
847,996	58,57
848,293	59,3
848,59	59,46
848,887	59,31
849,184	59,73
849,481	59,77
849,778	59,97
850,074	60,27
850,371	60,89
850,668	61,44
850,964	61,11
851,261	60,88
851,557	61,02
851,854	61,57
852,15	61,85
852,446	62,03
852,743	61,89
853,039	62,27
853,335	63,06
853,631	63,33
853,927	62,78
854,223	61,79
854,519	61,13
854,815	60,9
855,111	60,66
855,406	60,78
855,702	61,1
855,998	61,63
856,293	61,37
856,589	61,49
856,884	61,86
857,18	63,14
857,475	63,57
857,77	63,29
858,066	63,27
858,361	62,75
858,656	63,42
858,951	63,27
859,246	62,93
859,541	62,68
859,836	62,65
860,131	62,85
860,426	63,04
860,72	63,53
861,015	63,88
861,31	64,24
861,604	64,22
861,899	64,23
862,193	63,63
862,487	62,96
862,782	62,66
863,076	62,72
863,37	62,25
863,664	61,8
863,959	62,02
864,253	61,45
864,547	62,37
864,841	62,5
865,135	62,91
865,428	63,41
865,722	63,71
866,016	63,86
866,31	64,16
866,603	64,54
866,897	64,2
867,19	64,6
867,484	64,88
867,777	64,8
868,07	65,23
868,364	66,19
868,657	67,11
868,95	67,72
869,243	67,44
869,536	67,8
869,829	68,28
870,122	69,04
870,415	69,64
870,708	69,09
871	68,29
871,293	68,21
871,586	68,06
871,878	67,3
872,171	66,01
872,463	64,89
872,756	64,93
873,048	66,09
873,341	65,78
873,633	65,7
873,925	66,21
874,217	65,83
874,509	64,95
874,801	64,55
875,093	64
875,385	64,18
875,677	63,5
875,969	62,92
