Data from zc74042_4_Reflection_00003.txt Node
Date: Thu Mar 12 14:51:23 ART 2020
User: Ana
Spectrometer: USB2E3644
Trigger mode: 4
Integration Time (sec): 5,000000E-2
Scans to average: 10
Electric dark correction enabled: true
Nonlinearity correction enabled: false
Boxcar width: 10
XAxis mode: Wavelengths
Number of Pixels in Spectrum: 2048
>>>>>Begin Spectral Data<<<<<
178,315	95,59
178,696	78,08
179,076	62,72
179,457	57,48
179,838	46,97
180,218	30,77
180,599	-50
180,979	28,57
181,36	47,67
181,74	85,54
182,121	94,79
182,501	106,58
182,881	100,32
183,262	98,67
183,642	102,56
184,022	106,9
184,402	113,51
184,783	117,61
185,163	117,18
185,543	114,84
185,923	114,1
186,303	114,27
186,683	111,18
187,063	108,27
187,443	106,25
187,823	102,71
188,203	101,47
188,583	103,67
188,963	107,93
189,343	110,32
189,723	109,06
190,102	109,28
190,482	114,39
190,862	117
191,242	118,84
191,621	117,95
192,001	117,06
192,38	115,91
192,76	116,55
193,14	117,6
193,519	117,32
193,898	116,27
194,278	115,31
194,657	115,78
195,037	117,9
195,416	121,09
195,795	123,81
196,175	125,14
196,554	124,9
196,933	123,01
197,312	122,17
197,692	121,62
198,071	120,75
198,45	118,53
198,829	117,89
199,208	117,44
199,587	117,82
199,966	117,81
200,345	117,2
200,724	115,57
201,103	114,52
201,482	114,55
201,86	115,38
202,239	115,68
202,618	115,26
202,997	113,82
203,375	112,13
203,754	111,82
204,133	111,51
204,511	110,77
204,89	109,45
205,269	108,77
205,647	109,5
206,026	109,75
206,404	110,86
206,782	111,24
207,161	111,37
207,539	111,71
207,918	112,87
208,296	112,9
208,674	113,08
209,052	112,29
209,431	111,12
209,809	109,95
210,187	109,22
210,565	109,68
210,943	111,28
211,321	112,55
211,699	111,6
212,077	110,91
212,455	111,3
212,833	112,73
213,211	113,46
213,589	113,23
213,967	113,75
214,345	113,17
214,722	112,56
215,1	114,01
215,478	114,65
215,855	113,63
216,233	113,14
216,611	113,83
216,988	115,48
217,366	116,36
217,743	116,84
218,121	118,01
218,498	118,51
218,876	117,84
219,253	117,47
219,631	119,13
220,008	120,68
220,385	121,42
220,762	121,74
221,14	125,37
221,517	127,87
221,894	128,48
222,271	130,67
222,648	133,26
223,025	133,26
223,402	133,56
223,78	135,63
224,157	139,02
224,533	139,46
224,91	141,14
225,287	145,2
225,664	150,32
226,041	155,05
226,418	159,17
226,795	161,86
227,171	165,77
227,548	169,35
227,925	171,77
228,301	173,05
228,678	173,55
229,055	170,48
229,431	170,71
229,808	172,97
230,184	174,08
230,561	176,07
230,937	179,3
231,313	182,07
231,69	183,46
232,066	180,72
232,442	182,06
232,819	185,75
233,195	184,51
233,571	185,24
233,947	187,34
234,323	189,32
234,699	194,65
235,075	197,43
235,451	201,25
235,827	205,72
236,203	210,47
236,579	219,22
236,955	233,3
237,331	246,76
237,707	264,42
238,083	296,97
238,459	351,86
238,834	444,12
239,21	625,98
239,586	981,7
239,961	1991,82
240,337	6075
240,713	-12061,11
241,088	-3367,19
241,464	-2444,32
241,839	-1822,88
242,215	-1082,32
242,59	-627,78
242,965	-347,26
243,341	-205,26
243,716	-138,89
244,091	-110,24
244,467	-94,74
244,842	-84,96
245,217	-77,77
245,592	-73,65
245,967	-72,87
246,343	-72,09
246,718	-72,02
247,093	-75,04
247,468	-77,66
247,843	-77,38
248,218	-74,64
248,593	-69,2
248,967	-63,43
249,342	-60,25
249,717	-58,58
250,092	-57,97
250,467	-59,12
250,841	-63,45
251,216	-72,93
251,591	-87,48
251,965	-101,33
252,34	-112,15
252,714	-123,57
253,089	-132,03
253,463	-139,64
253,838	-139,45
254,212	-134,9
254,587	-126,89
254,961	-111,39
255,335	-96
255,71	-80,69
256,084	-64,66
256,458	-53,42
256,832	-46,24
257,206	-41,95
257,581	-39,31
257,955	-37,43
258,329	-35,48
258,703	-33,52
259,077	-32,02
259,451	-30,47
259,825	-29,58
260,199	-29,18
260,572	-28,46
260,946	-28,14
261,32	-27,41
261,694	-26,57
262,068	-26,42
262,441	-26,3
262,815	-26,26
263,189	-25,86
263,562	-25,96
263,936	-27,58
264,309	-30,48
264,683	-33,65
265,056	-35,21
265,43	-35,87
265,803	-35,67
266,176	-35,15
266,55	-34,82
266,923	-33,81
267,296	-32,66
267,67	-31,19
268,043	-30,23
268,416	-28,8
268,789	-27,4
269,162	-26,17
269,535	-24,72
269,908	-23,26
270,281	-22,08
270,654	-21,66
271,027	-22,17
271,4	-22,58
271,773	-22,48
272,146	-22,22
272,519	-22,02
272,891	-22,06
273,264	-22,14
273,637	-22,41
274,01	-22,48
274,382	-22,84
274,755	-23,11
275,127	-23,43
275,5	-23,73
275,872	-23,63
276,245	-23,58
276,617	-23,93
276,99	-24,07
277,362	-24,75
277,734	-24,98
278,107	-24,97
278,479	-24,76
278,851	-24,34
279,223	-23,73
279,596	-23,24
279,968	-23,02
280,34	-22,53
280,712	-21,79
281,084	-20,92
281,456	-19,9
281,828	-18,99
282,2	-17,69
282,572	-16,74
282,944	-15,99
283,315	-15,51
283,687	-15,11
284,059	-15,19
284,431	-15,13
284,802	-14,93
285,174	-14,69
285,546	-14,49
285,917	-14,17
286,289	-13,79
286,66	-13,53
287,032	-13,36
287,403	-13,34
287,775	-13,32
288,146	-13,47
288,518	-13,68
288,889	-13,62
289,26	-13,74
289,632	-14
290,003	-14,45
290,374	-14,79
290,745	-15,03
291,116	-15,1
291,487	-15,03
291,858	-14,69
292,229	-14,49
292,6	-14,2
292,971	-13,45
293,342	-12,64
293,713	-12,07
294,084	-11,6
294,455	-10,98
294,826	-10,56
295,196	-10,33
295,567	-10,17
295,938	-9,87
296,308	-9,61
296,679	-9,48
297,05	-9,08
297,42	-8,65
297,791	-8,06
298,161	-7,57
298,532	-7,18
298,902	-6,83
299,272	-6,52
299,643	-6,31
300,013	-5,88
300,383	-5,56
300,754	-5,63
301,124	-5,93
301,494	-6,12
301,864	-6,22
302,234	-6,3
302,604	-6,34
302,974	-6,27
303,344	-6,05
303,714	-5,79
304,084	-5,45
304,454	-5,21
304,824	-5,05
305,194	-5,02
305,563	-5,13
305,933	-5,18
306,303	-5,11
306,673	-4,94
307,042	-4,77
307,412	-4,38
307,781	-3,85
308,151	-3,58
308,521	-3,3
308,89	-2,95
309,259	-2,82
309,629	-2,78
309,998	-2,78
310,368	-2,67
310,737	-2,47
311,106	-2,41
311,475	-2,48
311,845	-2,6
312,214	-2,63
312,583	-2,62
312,952	-2,57
313,321	-2,4
313,69	-2,11
314,059	-1,91
314,428	-1,82
314,797	-1,8
315,166	-2,03
315,535	-2,38
315,904	-2,55
316,272	-2,66
316,641	-2,62
317,01	-2,43
317,379	-2,18
317,747	-1,94
318,116	-1,75
318,484	-1,58
318,853	-1,43
319,221	-1,3
319,59	-1,2
319,958	-0,89
320,327	-0,64
320,695	-0,42
321,063	-0,18
321,432	0,01
321,8	0,29
322,168	0,53
322,536	0,61
322,905	0,97
323,273	1,32
323,641	1,55
324,009	1,76
324,377	1,87
324,745	1,98
325,113	2,2
325,481	2,38
325,849	2,54
326,216	2,68
326,584	2,99
326,952	3,3
327,32	3,58
327,687	3,66
328,055	3,85
328,423	4,02
328,79	4,11
329,158	4,12
329,525	4
329,893	4,12
330,26	4,46
330,628	4,62
330,995	4,76
331,362	4,89
331,73	4,98
332,097	5,07
332,464	5,11
332,831	5,16
333,199	5,31
333,566	5,46
333,933	5,57
334,3	5,57
334,667	5,62
335,034	5,69
335,401	5,77
335,768	5,75
336,135	5,77
336,502	5,76
336,868	5,88
337,235	6,08
337,602	6,12
337,969	6,23
338,335	6,38
338,702	6,54
339,069	6,73
339,435	6,89
339,802	7,07
340,168	7,29
340,535	7,43
340,901	7,44
341,267	7,36
341,634	7,44
342	7,51
342,366	7,6
342,733	7,69
343,099	7,86
343,465	7,99
343,831	8,06
344,197	8,27
344,563	8,34
344,929	8,43
345,295	8,58
345,661	8,66
346,027	8,67
346,393	8,6
346,759	8,62
347,125	8,69
347,491	8,71
347,856	8,73
348,222	8,75
348,588	8,91
348,953	9,13
349,319	9,24
349,684	9,38
350,05	9,5
350,415	9,66
350,781	9,71
351,146	9,77
351,512	9,84
351,877	9,86
352,242	9,93
352,608	10
352,973	10,09
353,338	10,25
353,703	10,39
354,068	10,49
354,433	10,55
354,798	10,61
355,164	10,71
355,528	10,82
355,893	10,94
356,258	10,98
356,623	11,03
356,988	11,13
357,353	11,21
357,718	11,27
358,082	11,31
358,447	11,38
358,812	11,56
359,176	11,71
359,541	11,8
359,905	11,87
360,27	11,97
360,634	12,02
360,999	12,04
361,363	12,13
361,728	12,22
362,092	12,33
362,456	12,38
362,821	12,44
363,185	12,46
363,549	12,49
363,913	12,51
364,277	12,52
364,641	12,47
365,005	12,53
365,369	12,54
365,733	12,59
366,097	12,68
366,461	12,69
366,825	12,75
367,189	12,83
367,553	12,93
367,916	13,02
368,28	13,11
368,644	13,16
369,007	13,23
369,371	13,31
369,734	13,42
370,098	13,5
370,461	13,61
370,825	13,69
371,188	13,78
371,552	13,89
371,915	14,01
372,278	14,15
372,642	14,29
373,005	14,39
373,368	14,49
373,731	14,57
374,094	14,65
374,457	14,74
374,82	14,84
375,183	14,93
375,546	15,01
375,909	15,08
376,272	15,22
376,635	15,29
376,998	15,35
377,361	15,4
377,723	15,49
378,086	15,56
378,449	15,66
378,811	15,73
379,174	15,84
379,537	15,91
379,899	16
380,262	16,07
380,624	16,13
380,987	16,24
381,349	16,32
381,711	16,44
382,074	16,52
382,436	16,59
382,798	16,71
383,16	16,72
383,522	16,75
383,884	16,75
384,247	16,81
384,609	16,87
384,971	16,89
385,333	16,92
385,695	16,96
386,056	16,97
386,418	16,97
386,78	16,92
387,142	16,95
387,504	16,95
387,865	16,93
388,227	16,99
388,589	17,01
388,95	17,02
389,312	17,02
389,673	17,07
390,035	17,05
390,396	17,04
390,758	17,1
391,119	17,14
391,48	17,16
391,842	17,18
392,203	17,24
392,564	17,22
392,925	17,23
393,286	17,27
393,648	17,31
394,009	17,37
394,37	17,43
394,731	17,44
395,092	17,48
395,452	17,54
395,813	17,58
396,174	17,61
396,535	17,66
396,896	17,67
397,257	17,69
397,617	17,77
397,978	17,79
398,338	17,8
398,699	17,84
399,06	17,91
399,42	17,93
399,781	17,94
400,141	18,01
400,501	18,01
400,862	18,01
401,222	17,99
401,582	17,98
401,943	18,02
402,303	17,99
402,663	18
403,023	17,99
403,383	17,98
403,743	17,99
404,103	17,99
404,463	18,01
404,823	18,03
405,183	18,07
405,543	18,1
405,903	18,14
406,262	18,14
406,622	18,15
406,982	18,14
407,342	18,14
407,701	18,13
408,061	18,16
408,42	18,19
408,78	18,25
409,139	18,32
409,499	18,32
409,858	18,38
410,217	18,43
410,577	18,47
410,936	18,48
411,295	18,5
411,655	18,51
412,014	18,52
412,373	18,49
412,732	18,42
413,091	18,41
413,45	18,39
413,809	18,41
414,168	18,36
414,527	18,34
414,886	18,35
415,245	18,36
415,603	18,35
415,962	18,31
416,321	18,29
416,679	18,26
417,038	18,22
417,397	18,2
417,755	18,16
418,114	18,13
418,472	18,11
418,831	18,1
419,189	18,09
419,547	18,07
419,906	18,08
420,264	18,09
420,622	18,08
420,981	18,07
421,339	18,05
421,697	18,05
422,055	18,08
422,413	18,08
422,771	18,08
423,129	18,1
423,487	18,13
423,845	18,14
424,203	18,15
424,56	18,18
424,918	18,19
425,276	18,24
425,634	18,27
425,991	18,3
426,349	18,34
426,707	18,37
427,064	18,42
427,422	18,43
427,779	18,48
428,137	18,52
428,494	18,59
428,851	18,62
429,209	18,67
429,566	18,68
429,923	18,69
430,28	18,73
430,637	18,76
430,995	18,77
431,352	18,79
431,709	18,78
432,066	18,8
432,423	18,85
432,78	18,85
433,137	18,85
433,493	18,86
433,85	18,88
434,207	18,88
434,564	18,85
434,92	18,85
435,277	18,83
435,634	18,81
435,99	18,77
436,347	18,78
436,703	18,77
437,06	18,77
437,416	18,78
437,773	18,74
438,129	18,72
438,485	18,74
438,841	18,74
439,198	18,77
439,554	18,77
439,91	18,76
440,266	18,76
440,622	18,77
440,978	18,77
441,334	18,75
441,69	18,75
442,046	18,76
442,402	18,77
442,758	18,77
443,113	18,78
443,469	18,78
443,825	18,78
444,181	18,79
444,536	18,8
444,892	18,81
445,247	18,83
445,603	18,83
445,958	18,83
446,314	18,86
446,669	18,86
447,025	18,87
447,38	18,88
447,735	18,89
448,09	18,91
448,446	18,92
448,801	18,93
449,156	18,95
449,511	18,99
449,866	19,01
450,221	19,04
450,576	19,08
450,931	19,15
451,286	19,2
451,641	19,24
451,995	19,28
452,35	19,33
452,705	19,35
453,06	19,38
453,414	19,41
453,769	19,41
454,123	19,43
454,478	19,46
454,832	19,48
455,187	19,49
455,541	19,48
455,896	19,46
456,25	19,44
456,604	19,41
456,958	19,39
457,313	19,37
457,667	19,36
458,021	19,35
458,375	19,34
458,729	19,35
459,083	19,34
459,437	19,34
459,791	19,33
460,145	19,36
460,499	19,35
460,852	19,34
461,206	19,33
461,56	19,32
461,914	19,32
462,267	19,3
462,621	19,31
462,974	19,33
463,328	19,36
463,681	19,4
464,035	19,44
464,388	19,46
464,742	19,48
465,095	19,51
465,448	19,54
465,801	19,54
466,155	19,51
466,508	19,5
466,861	19,48
467,214	19,51
467,567	19,47
467,92	19,5
468,273	19,52
468,626	19,53
468,979	19,52
469,332	19,52
469,684	19,54
470,037	19,54
470,39	19,54
470,743	19,55
471,095	19,55
471,448	19,55
471,8	19,56
472,153	19,58
472,505	19,57
472,858	19,57
473,21	19,58
473,562	19,63
473,915	19,66
474,267	19,68
474,619	19,68
474,971	19,71
475,324	19,68
475,676	19,69
476,028	19,72
476,38	19,73
476,732	19,73
477,084	19,73
477,436	19,74
477,787	19,74
478,139	19,72
478,491	19,73
478,843	19,73
479,195	19,7
479,546	19,7
479,898	19,69
480,249	19,7
480,601	19,69
480,952	19,67
481,304	19,65
481,655	19,62
482,007	19,61
482,358	19,59
482,709	19,58
483,061	19,56
483,412	19,55
483,763	19,56
484,114	19,55
484,465	19,55
484,816	19,55
485,167	19,54
485,518	19,54
485,869	19,54
486,22	19,54
486,571	19,55
486,922	19,54
487,272	19,54
487,623	19,53
487,974	19,53
488,324	19,53
488,675	19,53
489,025	19,55
489,376	19,56
489,726	19,58
490,077	19,59
490,427	19,6
490,778	19,62
491,128	19,61
491,478	19,62
491,828	19,64
492,179	19,66
492,529	19,68
492,879	19,7
493,229	19,71
493,579	19,73
493,929	19,73
494,279	19,75
494,629	19,76
494,979	19,79
495,328	19,81
495,678	19,82
496,028	19,85
496,378	19,88
496,727	19,9
497,077	19,91
497,426	19,93
497,776	19,93
498,125	19,95
498,475	19,98
498,824	19,98
499,174	19,97
499,523	19,97
499,872	19,99
500,221	20,01
500,571	20,01
500,92	20,01
501,269	20,04
501,618	20,04
501,967	20,06
502,316	20,07
502,665	20,06
503,014	20,08
503,363	20,08
503,711	20,06
504,06	20,07
504,409	20,1
504,758	20,1
505,106	20,09
505,455	20,06
505,803	20,05
506,152	20,06
506,5	20,08
506,849	20,07
507,197	20,06
507,546	20,06
507,894	20,06
508,242	20,08
508,59	20,06
508,939	20,06
509,287	20,07
509,635	20,07
509,983	20,11
510,331	20,12
510,679	20,12
511,027	20,14
511,375	20,15
511,723	20,15
512,07	20,19
512,418	20,22
512,766	20,25
513,114	20,27
513,461	20,29
513,809	20,29
514,156	20,31
514,504	20,31
514,851	20,32
515,199	20,29
515,546	20,28
515,893	20,3
516,241	20,34
516,588	20,33
516,935	20,34
517,282	20,31
517,63	20,33
517,977	20,33
518,324	20,35
518,671	20,34
519,018	20,36
519,365	20,33
519,711	20,33
520,058	20,35
520,405	20,34
520,752	20,34
521,099	20,34
521,445	20,35
521,792	20,36
522,138	20,35
522,485	20,38
522,832	20,4
523,178	20,39
523,524	20,36
523,871	20,34
524,217	20,34
524,563	20,33
524,91	20,32
525,256	20,32
525,602	20,32
525,948	20,32
526,294	20,31
526,64	20,3
526,986	20,28
527,332	20,26
527,678	20,26
528,024	20,26
528,37	20,27
528,716	20,27
529,061	20,27
529,407	20,27
529,753	20,26
530,098	20,25
530,444	20,26
530,789	20,27
531,135	20,27
531,48	20,28
531,826	20,28
532,171	20,29
532,516	20,29
532,862	20,29
533,207	20,29
533,552	20,3
533,897	20,32
534,242	20,33
534,587	20,35
534,932	20,36
535,277	20,36
535,622	20,36
535,967	20,36
536,312	20,36
536,657	20,38
537,001	20,41
537,346	20,41
537,691	20,42
538,035	20,43
538,38	20,45
538,724	20,45
539,069	20,45
539,413	20,45
539,758	20,44
540,102	20,42
540,446	20,41
540,791	20,4
541,135	20,41
541,479	20,41
541,823	20,41
542,167	20,41
542,512	20,41
542,856	20,42
543,2	20,41
543,543	20,42
543,887	20,41
544,231	20,42
544,575	20,43
544,919	20,42
545,262	20,43
545,606	20,43
545,95	20,41
546,293	20,43
546,637	20,45
546,98	20,46
547,324	20,5
547,667	20,54
548,011	20,55
548,354	20,57
548,697	20,57
549,04	20,6
549,384	20,61
549,727	20,6
550,07	20,6
550,413	20,62
550,756	20,61
551,099	20,64
551,442	20,63
551,785	20,65
552,128	20,67
552,47	20,66
552,813	20,64
553,156	20,66
553,499	20,67
553,841	20,66
554,184	20,67
554,526	20,65
554,869	20,61
555,211	20,6
555,554	20,58
555,896	20,56
556,238	20,51
556,581	20,48
556,923	20,45
557,265	20,44
557,607	20,43
557,949	20,43
558,291	20,41
558,633	20,4
558,975	20,35
559,317	20,33
559,659	20,3
560,001	20,28
560,343	20,26
560,685	20,23
561,026	20,22
561,368	20,22
561,71	20,21
562,051	20,19
562,393	20,18
562,734	20,15
563,076	20,16
563,417	20,17
563,759	20,2
564,1	20,2
564,441	20,2
564,782	20,16
565,124	20,12
565,465	20,11
565,806	20,09
566,147	20,09
566,488	20,08
566,829	20,08
567,17	20,1
567,511	20,07
567,851	20,07
568,192	20,06
568,533	20,02
568,874	20,01
569,214	20,02
569,555	20,02
569,895	20,03
570,236	20,03
570,576	20,01
570,917	19,97
571,257	19,96
571,598	19,94
571,938	19,96
572,278	19,96
572,618	19,94
572,959	19,95
573,299	19,93
573,639	19,94
573,979	19,93
574,319	19,9
574,659	19,88
574,999	19,85
575,339	19,84
575,678	19,83
576,018	19,81
576,358	19,77
576,698	19,72
577,037	19,68
577,377	19,66
577,716	19,63
578,056	19,63
578,395	19,61
578,735	19,6
579,074	19,6
579,413	19,57
579,753	19,54
580,092	19,48
580,431	19,45
580,77	19,46
581,109	19,43
581,448	19,42
581,787	19,41
582,126	19,46
582,465	19,42
582,804	19,39
583,143	19,4
583,482	19,37
583,82	19,37
584,159	19,37
584,498	19,37
584,836	19,35
585,175	19,35
585,514	19,34
585,852	19,33
586,19	19,32
586,529	19,32
586,867	19,34
587,205	19,37
587,544	19,41
587,882	19,38
588,22	19,42
588,558	19,43
588,896	19,44
589,234	19,41
589,572	19,42
589,91	19,42
590,248	19,37
590,586	19,41
590,924	19,43
591,262	19,47
591,599	19,47
591,937	19,49
592,275	19,51
592,612	19,52
592,95	19,57
593,287	19,65
593,625	19,68
593,962	19,67
594,299	19,69
594,637	19,68
594,974	19,71
595,311	19,71
595,648	19,71
595,985	19,71
596,322	19,7
596,659	19,7
596,996	19,72
597,333	19,74
597,67	19,75
598,007	19,7
598,344	19,7
598,681	19,74
599,017	19,73
599,354	19,72
599,691	19,73
600,027	19,71
600,364	19,66
600,7	19,67
601,037	19,71
601,373	19,71
601,71	19,73
602,046	19,72
602,382	19,73
602,718	19,72
603,054	19,74
603,391	19,74
603,727	19,75
604,063	19,74
604,399	19,77
604,735	19,77
605,071	19,79
605,406	19,8
605,742	19,77
606,078	19,79
606,414	19,86
606,749	19,85
607,085	19,85
607,421	19,84
607,756	19,83
608,092	19,78
608,427	19,77
608,762	19,73
609,098	19,7
609,433	19,69
609,768	19,67
610,104	19,69
610,439	19,68
610,774	19,71
611,109	19,69
611,444	19,69
611,779	19,66
612,114	19,67
612,449	19,65
612,784	19,63
613,118	19,62
613,453	19,52
613,788	19,48
614,123	19,45
614,457	19,39
614,792	19,35
615,126	19,35
615,461	19,32
615,795	19,35
616,13	19,34
616,464	19,35
616,798	19,37
617,132	19,37
617,467	19,38
617,801	19,33
618,135	19,33
618,469	19,3
618,803	19,32
619,137	19,36
619,471	19,34
619,805	19,33
620,139	19,31
620,472	19,33
620,806	19,34
621,14	19,33
621,473	19,39
621,807	19,35
622,141	19,35
622,474	19,38
622,808	19,37
623,141	19,39
623,474	19,39
623,808	19,39
624,141	19,42
624,474	19,47
624,807	19,48
625,141	19,5
625,474	19,53
625,807	19,56
626,14	19,53
626,473	19,59
626,806	19,59
627,138	19,57
627,471	19,54
627,804	19,56
628,137	19,54
628,469	19,52
628,802	19,56
629,135	19,56
629,467	19,53
629,8	19,52
630,132	19,51
630,465	19,51
630,797	19,52
631,129	19,53
631,461	19,5
631,794	19,54
632,126	19,55
632,458	19,54
632,79	19,52
633,122	19,52
633,454	19,5
633,786	19,54
634,118	19,57
634,45	19,62
634,781	19,61
635,113	19,61
635,445	19,61
635,777	19,65
636,108	19,67
636,44	19,66
636,771	19,69
637,103	19,68
637,434	19,62
637,765	19,58
638,097	19,56
638,428	19,55
638,759	19,49
639,09	19,5
639,422	19,5
639,753	19,46
640,084	19,43
640,415	19,37
640,746	19,32
641,077	19,3
641,407	19,33
641,738	19,35
642,069	19,35
642,4	19,34
642,73	19,29
643,061	19,3
643,392	19,34
643,722	19,31
644,053	19,37
644,383	19,44
644,713	19,48
645,044	19,46
645,374	19,45
645,704	19,46
646,034	19,4
646,365	19,41
646,695	19,45
647,025	19,55
647,355	19,58
647,685	19,6
648,015	19,62
648,344	19,58
648,674	19,54
649,004	19,56
649,334	19,57
649,663	19,62
649,993	19,6
650,323	19,58
650,652	19,57
650,982	19,53
651,311	19,5
651,64	19,47
651,97	19,48
652,299	19,49
652,628	19,55
652,958	19,64
653,287	19,71
653,616	19,68
653,945	19,64
654,274	19,63
654,603	19,65
654,932	19,66
655,261	19,72
655,589	19,75
655,918	19,77
656,247	19,82
656,576	19,83
656,904	19,86
657,233	19,88
657,561	19,92
657,89	19,94
658,218	19,94
658,547	19,98
658,875	19,95
659,203	19,98
659,532	19,96
659,86	19,91
660,188	19,88
660,516	19,92
660,844	19,95
661,172	19,98
661,5	19,98
661,828	20,01
662,156	19,96
662,484	19,99
662,811	20,01
663,139	19,97
663,467	19,93
663,794	19,92
664,122	19,94
664,45	19,94
664,777	19,95
665,104	20,01
665,432	20
665,759	20
666,086	19,98
666,414	19,95
666,741	19,95
667,068	19,94
667,395	19,94
667,722	19,93
668,049	19,94
668,376	19,96
668,703	19,94
669,03	20
669,357	19,94
669,683	19,88
670,01	19,85
670,337	19,86
670,663	19,86
670,99	19,81
671,317	19,78
671,643	19,8
671,969	19,72
672,296	19,74
672,622	19,77
672,948	19,73
673,275	19,73
673,601	19,7
673,927	19,68
674,253	19,69
674,579	19,66
674,905	19,61
675,231	19,56
675,557	19,54
675,883	19,5
676,209	19,53
676,534	19,58
676,86	19,61
677,186	19,68
677,511	19,76
677,837	19,79
678,162	19,83
678,488	19,87
678,813	19,97
679,139	19,98
679,464	19,96
679,789	19,98
680,114	19,99
680,44	20,03
680,765	20,05
681,09	19,99
681,415	19,99
681,74	20,02
682,065	20
682,39	20,01
682,714	20,05
683,039	20,07
683,364	20,04
683,689	20,02
684,013	19,99
684,338	19,91
684,662	19,9
684,987	19,88
685,311	19,82
685,636	19,74
685,96	19,73
686,284	19,76
686,608	19,74
686,933	19,69
687,257	19,67
687,581	19,65
687,905	19,64
688,229	19,63
688,553	19,61
688,877	19,64
689,201	19,66
689,524	19,69
689,848	19,67
690,172	19,67
690,496	19,72
690,819	19,65
691,143	19,67
691,466	19,68
691,79	19,66
692,113	19,65
692,436	19,6
692,76	19,57
693,083	19,59
693,406	19,62
693,729	19,66
694,053	19,65
694,376	19,67
694,699	19,71
695,022	19,78
695,344	19,85
695,667	19,94
695,99	20,01
696,313	20,06
696,636	20,09
696,958	20,15
697,281	20,19
697,604	20,23
697,926	20,23
698,249	20,28
698,571	20,33
698,893	20,38
699,216	20,46
699,538	20,46
699,86	20,47
700,182	20,44
700,504	20,48
700,827	20,5
701,149	20,51
701,471	20,51
701,793	20,45
702,114	20,42
702,436	20,34
702,758	20,24
703,08	20,06
703,401	20,01
703,723	19,9
704,045	19,82
704,366	19,83
704,688	19,82
705,009	19,77
705,331	19,75
705,652	19,69
705,973	19,66
706,294	19,62
706,616	19,55
706,937	19,53
707,258	19,43
707,579	19,35
707,9	19,34
708,221	19,41
708,542	19,45
708,863	19,46
709,183	19,53
709,504	19,61
709,825	19,69
710,145	19,71
710,466	19,79
710,787	19,84
711,107	19,84
711,427	19,88
711,748	19,94
712,068	19,96
712,388	20,01
712,709	20,11
713,029	20,16
713,349	20,21
713,669	20,3
713,989	20,43
714,309	20,61
714,629	20,65
714,949	20,67
715,269	20,7
715,589	20,73
715,908	20,73
716,228	20,7
716,548	20,76
716,867	20,78
717,187	20,78
717,506	20,85
717,826	20,9
718,145	20,89
718,465	20,85
718,784	20,81
719,103	20,81
719,422	20,71
719,741	20,8
720,061	20,88
720,38	20,97
720,699	20,97
721,018	20,93
721,336	20,98
721,655	20,98
721,974	21,01
722,293	21,13
722,612	21,27
722,93	21,34
723,249	21,42
723,567	21,55
723,886	21,66
724,204	21,7
724,523	21,85
724,841	22
725,159	22,14
725,477	22,35
725,796	22,41
726,114	22,58
726,432	22,65
726,75	22,68
727,068	22,71
727,386	22,9
727,704	23,11
728,022	23,23
728,339	23,31
728,657	23,36
728,975	23,39
729,292	23,48
729,61	23,63
729,928	23,73
730,245	23,86
730,562	24,06
730,88	24,19
731,197	24,28
731,514	24,26
731,832	24,34
732,149	24,39
732,466	24,5
732,783	24,58
733,1	24,66
733,417	24,75
733,734	24,94
734,051	24,97
734,368	24,87
734,684	24,98
735,001	25,11
735,318	25,27
735,634	25,31
735,951	25,33
736,268	25,41
736,584	25,37
736,9	25,36
737,217	25,31
737,533	25,32
737,849	25,33
738,166	25,51
738,482	25,68
738,798	25,87
739,114	26,02
739,43	26,14
739,746	26,21
740,062	26,34
740,378	26,35
740,693	26,48
741,009	26,7
741,325	26,74
741,641	26,85
741,956	26,95
742,272	27,2
742,587	27,36
742,903	27,41
743,218	27,52
743,533	27,71
743,849	27,81
744,164	27,87
744,479	27,91
744,794	27,84
745,109	27,74
745,424	27,64
745,739	27,58
746,054	27,49
746,369	27,54
746,684	27,58
746,999	27,65
747,313	27,58
747,628	27,64
747,943	27,76
748,257	27,79
748,572	27,88
748,886	27,81
749,201	27,8
749,515	27,84
749,829	27,92
750,144	27,93
750,458	27,99
750,772	28,04
751,086	28,15
751,4	28,31
751,714	28,36
752,028	28,48
752,342	28,59
752,656	28,77
752,97	28,9
753,284	29,03
753,597	29,09
753,911	29,25
754,225	29,36
754,538	29,33
754,852	29,27
755,165	29,27
755,478	29,34
755,792	29,44
756,105	29,57
756,418	29,81
756,731	29,88
757,045	29,86
757,358	29,93
757,671	29,99
757,984	30,09
758,297	30,22
758,609	30,28
758,922	30,34
759,235	30,39
759,548	30,3
759,86	30,13
760,173	30,05
760,486	29,96
760,798	29,82
761,111	29,61
761,423	29,51
761,735	29,43
762,048	29,43
762,36	29,41
762,672	29,41
762,984	29,34
763,296	29,36
763,608	29,45
763,92	29,51
764,232	29,46
764,544	29,5
764,856	29,62
765,168	29,65
765,48	29,65
765,791	29,68
766,103	29,91
766,414	30,14
766,726	30,34
767,037	30,57
767,349	30,89
767,66	31,42
767,972	31,9
768,283	32,32
768,594	32,7
768,905	33,02
769,216	33,37
769,527	33,68
769,838	33,82
770,149	33,99
770,46	34,22
770,771	34,56
771,082	34,7
771,393	34,68
771,703	34,9
772,014	35,35
772,324	35,7
772,635	35,78
772,945	35,73
773,256	35,81
773,566	35,9
773,877	35,92
774,187	35,81
774,497	35,79
774,807	35,81
775,117	35,85
775,427	35,91
775,737	35,89
776,047	35,9
776,357	36,27
776,667	36,53
776,977	36,76
777,287	37,01
777,596	37,25
777,906	37,41
778,216	37,5
778,525	37,38
778,835	37,12
779,144	37,12
779,453	37,32
779,763	37,41
780,072	37,42
780,381	37,55
780,69	37,78
781	37,94
781,309	38,04
781,618	38,07
781,927	38,11
782,235	38,02
782,544	38,11
782,853	38,18
783,162	38,11
783,471	37,92
783,779	37,94
784,088	37,92
784,396	37,91
784,705	37,86
785,013	37,92
785,322	38,16
785,63	38,1
785,938	37,99
786,246	37,89
786,554	37,92
786,863	37,81
787,171	37,72
787,479	37,64
787,787	37,69
788,094	37,89
788,402	37,85
788,71	38,11
789,018	38,21
789,326	38,11
789,633	38,21
789,941	38,27
790,248	38,14
790,556	38,21
790,863	38,42
791,171	38,59
791,478	38,74
791,785	38,84
792,092	38,91
792,399	39,05
792,707	39,2
793,014	39,09
793,321	39,19
793,628	39,5
793,934	39,75
794,241	39,97
794,548	39,85
794,855	39,99
795,161	40,1
795,468	39,98
795,775	39,79
796,081	39,75
796,388	39,94
796,694	40,13
797	39,85
797,307	39,74
797,613	39,58
797,919	39,5
798,225	39,41
798,531	39,33
798,837	39,25
799,143	39,36
799,449	39,63
799,755	39,75
800,061	39,72
800,367	39,85
800,672	39,76
800,978	39,85
801,284	40,11
801,589	40,03
801,895	40,25
802,2	40,48
802,506	40,58
802,811	40,45
803,116	40,37
803,421	40,66
803,727	40,78
804,032	40,91
804,337	41,17
804,642	41,6
804,947	42,15
805,252	42,71
805,556	42,97
805,861	43,2
806,166	43,06
806,471	42,95
806,775	42,76
807,08	42,73
807,384	42,6
807,689	42,39
807,993	42,3
808,298	42,27
808,602	42,46
808,906	42,47
809,211	42,56
809,515	42,78
809,819	42,89
810,123	42,9
810,427	42,99
810,731	42,97
811,035	42,85
811,338	42,61
811,642	42,34
811,946	42,31
812,25	42,42
812,553	42,78
812,857	43,05
813,16	43,19
813,464	43,26
813,767	43,61
814,07	43,57
814,374	43,69
814,677	43,63
814,98	43,63
815,283	43,62
815,586	43,5
815,889	43,27
816,192	43,06
816,495	43,04
816,798	42,93
817,101	42,52
817,404	41,86
817,706	41,43
818,009	40,92
818,312	40,13
818,614	38,64
818,917	36,98
819,219	35,26
819,521	33,6
819,824	32,31
820,126	31,28
820,428	30,55
820,73	30,05
821,032	29,55
821,334	29,21
821,636	29,02
821,938	28,97
822,24	28,89
822,542	28,83
822,844	28,82
823,145	28,78
823,447	28,77
823,749	28,73
824,05	28,64
824,352	28,6
824,653	28,55
824,955	28,63
825,256	28,75
825,557	28,94
825,858	29,22
826,16	29,58
826,461	29,97
826,762	30,46
827,063	30,96
827,364	31,62
827,665	32,23
827,965	32,76
828,266	33,18
828,567	33,68
828,868	34,08
829,168	34,3
829,469	34,51
829,769	34,68
830,07	35,1
830,37	35,48
830,67	35,84
830,971	36,23
831,271	36,61
831,571	36,84
831,871	36,94
832,171	37,19
832,471	37,29
832,771	37,44
833,071	37,44
833,371	37,43
833,671	37,35
833,971	37,21
834,27	37,21
834,57	37,24
834,869	37,2
835,169	37,37
835,468	37,65
835,768	38,05
836,067	38,31
836,367	38,46
836,666	38,9
836,965	39,32
837,264	39,76
837,563	40,36
837,862	41,15
838,161	41,78
838,46	42,18
838,759	42,54
839,058	42,92
839,356	43,5
839,655	43,77
839,954	44,01
840,252	44,52
840,551	44,71
840,849	44,87
841,148	45,18
841,446	45,1
841,744	45,08
842,043	44,87
842,341	45,06
842,639	45,48
842,937	45,54
843,235	46,16
843,533	46,97
843,831	47,81
844,129	48,57
844,427	49,8
844,724	51,41
845,022	53,15
845,32	54,77
845,617	55,68
845,915	56,82
846,212	58,12
846,51	59,36
846,807	60,49
847,104	61,36
847,402	62,07
847,699	62,79
847,996	63,2
848,293	63,72
848,59	64,06
848,887	64,13
849,184	64,94
849,481	64,93
849,778	64,62
850,074	64,33
850,371	64,45
850,668	64,34
850,964	64
851,261	63,44
851,557	63,14
851,854	63,52
852,15	63,77
852,446	63,87
852,743	63,82
853,039	64,1
853,335	64,57
853,631	65,27
853,927	65,62
854,223	65,29
854,519	65,11
854,815	65,46
855,111	65,82
855,406	65,69
855,702	66,23
855,998	67,19
856,293	67,44
856,589	67,76
856,884	69,23
857,18	70,26
857,475	70,79
857,77	71,21
858,066	71,37
858,361	71,02
858,656	71,37
858,951	70,99
859,246	70,83
859,541	71,01
859,836	70,15
860,131	69,6
860,426	69,54
860,72	69,68
861,015	70,03
861,31	69,98
861,604	70,45
861,899	70,87
862,193	70,7
862,487	70,51
862,782	70,38
863,076	69,64
863,37	69,13
863,664	68,55
863,959	68,07
864,253	67,73
864,547	67,74
864,841	67,88
865,135	68,16
865,428	68,52
865,722	68,48
866,016	68,59
866,31	68,2
866,603	67,83
866,897	67,51
867,19	66,33
867,484	65,48
867,777	65,08
868,07	64,74
868,364	64,75
868,657	65,41
868,95	65,89
869,243	65,9
869,536	65,57
869,829	65,21
870,122	65,05
870,415	64,87
870,708	64,9
871	64,06
871,293	63,49
871,586	62,99
871,878	61,81
872,171	60,57
872,463	60,73
872,756	61,45
873,048	61,98
873,341	62,38
873,633	62,87
873,925	62,66
874,217	61,87
874,509	61,11
874,801	60,14
875,093	59,11
875,385	58,35
875,677	57,97
875,969	58,43
