Data from zc74051_2_Reflection_00005.txt Node
Date: Thu Mar 12 15:04:20 ART 2020
User: Ana
Spectrometer: USB2E3644
Trigger mode: 4
Integration Time (sec): 5,000000E-2
Scans to average: 10
Electric dark correction enabled: true
Nonlinearity correction enabled: false
Boxcar width: 10
XAxis mode: Wavelengths
Number of Pixels in Spectrum: 2048
>>>>>Begin Spectral Data<<<<<
178,315	113,98
178,696	120,72
179,076	127,34
179,457	128,53
179,838	127,56
180,218	207,07
180,599	-319,44
180,979	121,05
181,36	227,78
181,74	139,9
182,121	118,15
182,501	107,93
182,881	105,56
183,262	106,48
183,642	108,3
184,022	108,08
184,402	106,3
184,783	104,66
185,163	104,21
185,543	105,98
185,923	106,39
186,303	108,2
186,683	111,92
187,063	113,43
187,443	113,6
187,823	111,9
188,203	110,52
188,583	109,39
188,963	107,94
189,343	106,82
189,723	106,08
190,102	105,74
190,482	105,05
190,862	104,78
191,242	104,81
191,621	105,96
192,001	107,44
192,38	107,96
192,76	108,75
193,14	109,41
193,519	109,92
193,898	109,88
194,278	109,21
194,657	107,41
195,037	106,72
195,416	106,14
195,795	106,97
196,175	108,67
196,554	108,86
196,933	109,02
197,312	109,85
197,692	110,82
198,071	111,46
198,45	112,1
198,829	112,93
199,208	113,49
199,587	113,32
199,966	113,98
200,345	115,31
200,724	115,92
201,103	116,03
201,482	115,45
201,86	114,9
202,239	114,45
202,618	114,61
202,997	115,16
203,375	115,7
203,754	115,38
204,133	115,69
204,511	116,76
204,89	117,28
205,269	116,81
205,647	116,42
206,026	116,61
206,404	117,06
206,782	116,7
207,161	115,59
207,539	114,53
207,918	113,06
208,296	111,95
208,674	111,49
209,052	111,91
209,431	112,64
209,809	113,35
210,187	113,88
210,565	114,12
210,943	113,62
211,321	113,88
211,699	114,95
212,077	115,11
212,455	115,05
212,833	114,9
213,211	114,77
213,589	114,88
213,967	115,66
214,345	115,83
214,722	116,24
215,1	117,11
215,478	118,35
215,855	119,98
216,233	120,87
216,611	121,32
216,988	120,54
217,366	119,03
217,743	118,06
218,121	116,86
218,498	116,26
218,876	116,33
219,253	115,86
219,631	113,91
220,008	112,93
220,385	112,14
220,762	111,69
221,14	111,49
221,517	111,11
221,894	110,2
222,271	109,57
222,648	109,03
223,025	107,92
223,402	107,16
223,78	106,34
224,157	105,2
224,533	105,3
224,91	106,59
225,287	107,82
225,664	108,82
226,041	110,87
226,418	113,04
226,795	113,75
227,171	114,1
227,548	115,32
227,925	115,93
228,301	116,06
228,678	115,95
229,055	116,68
229,431	117,79
229,808	118,14
230,184	118,39
230,561	119,24
230,937	120,04
231,313	120,2
231,69	120,9
232,066	123,75
232,442	125,68
232,819	126,45
233,195	127,12
233,571	128,33
233,947	128,17
234,323	127,79
234,699	128,68
235,075	130,12
235,451	132,86
235,827	135,97
236,203	139,78
236,579	144,94
236,955	149,08
237,331	153,27
237,707	160,02
238,083	169,43
238,459	180,69
238,834	198,37
239,21	222,89
239,586	250,7
239,961	273,95
240,337	291,26
240,713	304,83
241,088	321,09
241,464	335,61
241,839	354,87
242,215	387,9
242,59	478,75
242,965	852,22
243,341	-4574,73
243,716	-568,34
244,091	-327,23
244,467	-245,11
244,842	-201,3
245,217	-172,04
245,592	-157,16
245,967	-153,96
246,343	-148,62
246,718	-145,52
247,093	-148,09
247,468	-152,85
247,843	-152,03
248,218	-144,5
248,593	-131,36
248,967	-119,57
249,342	-112,62
249,717	-108,37
250,092	-105,39
250,467	-106,34
250,841	-114,82
251,216	-134,45
251,591	-166,53
251,965	-203,08
252,34	-239,75
252,714	-287,04
253,089	-346,04
253,463	-391,5
253,838	-392,78
254,212	-383,29
254,587	-350,04
254,961	-285,66
255,335	-224,86
255,71	-174,21
256,084	-127,88
256,458	-98,11
256,832	-81,22
257,206	-72,01
257,581	-67,22
257,955	-64,51
258,329	-62,08
258,703	-58,74
259,077	-55,9
259,451	-52,93
259,825	-51,64
260,199	-51,58
260,572	-50,84
260,946	-50,37
261,32	-50,01
261,694	-48,93
262,068	-48,3
262,441	-47,36
262,815	-46,68
263,189	-45,6
263,562	-45,66
263,936	-48,46
264,309	-54,11
264,683	-60,52
265,056	-64,36
265,43	-65,71
265,803	-65,02
266,176	-63,04
266,55	-61,56
266,923	-60,23
267,296	-58,55
267,67	-55,38
268,043	-52,25
268,416	-48,53
268,789	-44,94
269,162	-41,6
269,535	-39,09
269,908	-36,99
270,281	-35,88
270,654	-36,16
271,027	-37,27
271,4	-37,81
271,773	-37,69
272,146	-37,23
272,519	-36,92
272,891	-37,05
273,264	-37,09
273,637	-36,88
274,01	-37,14
274,382	-38,32
274,755	-39,01
275,127	-39,69
275,5	-40,45
275,872	-40,92
276,245	-41,8
276,617	-43,16
276,99	-44,62
277,362	-46,19
277,734	-47,21
278,107	-47,25
278,479	-46,26
278,851	-45,06
279,223	-44,55
279,596	-44,05
279,968	-43,81
280,34	-43,12
280,712	-41,98
281,084	-40,44
281,456	-39,2
281,828	-37,54
282,2	-35,01
282,572	-33,17
282,944	-31,81
283,315	-31
283,687	-30,19
284,059	-29,52
284,431	-28,95
284,802	-28,16
285,174	-27,37
285,546	-26,7
285,917	-26,04
286,289	-25,45
286,66	-24,93
287,032	-24,22
287,403	-23,94
287,775	-23,86
288,146	-24,08
288,518	-24,45
288,889	-24,62
289,26	-24,68
289,632	-25,15
290,003	-25,9
290,374	-26,22
290,745	-26,46
291,116	-26,41
291,487	-26,37
291,858	-26,16
292,229	-25,87
292,6	-25,51
292,971	-24,92
293,342	-24,1
293,713	-23,21
294,084	-22,28
294,455	-21,38
294,826	-20,99
295,196	-20,81
295,567	-20,75
295,938	-20,26
296,308	-19,68
296,679	-19,31
297,05	-19,02
297,42	-18,53
297,791	-17,9
298,161	-17,54
298,532	-17,02
298,902	-16,64
299,272	-16,36
299,643	-16,22
300,013	-15,89
300,383	-15,69
300,754	-15,75
301,124	-16,08
301,494	-16,56
301,864	-17,06
302,234	-17,48
302,604	-17,56
302,974	-17,4
303,344	-16,94
303,714	-16,51
304,084	-16,05
304,454	-15,78
304,824	-15,62
305,194	-15,54
305,563	-15,63
305,933	-15,52
306,303	-15,22
306,673	-14,74
307,042	-14,21
307,412	-13,55
307,781	-12,88
308,151	-12,47
308,521	-12,16
308,89	-11,75
309,259	-11,58
309,629	-11,49
309,998	-11,38
310,368	-11,27
310,737	-11,06
311,106	-10,92
311,475	-10,91
311,845	-11,05
312,214	-11,04
312,583	-11,02
312,952	-11,07
313,321	-10,96
313,69	-10,64
314,059	-10,65
314,428	-10,94
314,797	-11,32
315,166	-11,83
315,535	-12,48
315,904	-12,97
316,272	-13,16
316,641	-13,37
317,01	-13,24
317,379	-13,09
317,747	-12,85
318,116	-12,56
318,484	-12,42
318,853	-12,35
319,221	-12,26
319,59	-12,2
319,958	-12,06
320,327	-11,92
320,695	-11,73
321,063	-11,55
321,432	-11,5
321,8	-11,26
322,168	-10,99
322,536	-10,75
322,905	-10,25
323,273	-9,72
323,641	-9,26
324,009	-9,04
324,377	-8,97
324,745	-8,78
325,113	-8,46
325,481	-8,19
325,849	-7,99
326,216	-7,77
326,584	-7,64
326,952	-7,56
327,32	-7,35
327,687	-7,19
328,055	-6,92
328,423	-6,64
328,79	-6,56
329,158	-6,58
329,525	-6,63
329,893	-6,5
330,26	-6,29
330,628	-6,23
330,995	-6,17
331,362	-6,12
331,73	-6,01
332,097	-5,74
332,464	-5,55
332,831	-5,39
333,199	-5,32
333,566	-5,22
333,933	-5
334,3	-4,68
334,667	-4,4
335,034	-4,22
335,401	-4,04
335,768	-3,9
336,135	-3,83
336,502	-3,71
336,868	-3,46
337,235	-3,18
337,602	-2,96
337,969	-2,75
338,335	-2,55
338,702	-2,32
339,069	-2,15
339,435	-2,03
339,802	-1,88
340,168	-1,79
340,535	-1,64
340,901	-1,58
341,267	-1,51
341,634	-1,47
342	-1,45
342,366	-1,36
342,733	-1,28
343,099	-1,19
343,465	-1,15
343,831	-1,06
344,197	-0,91
344,563	-0,87
344,929	-0,88
345,295	-0,8
345,661	-0,7
346,027	-0,62
346,393	-0,56
346,759	-0,41
347,125	-0,3
347,491	-0,2
347,856	-0,1
348,222	-0,1
348,588	0,03
348,953	0,13
349,319	0,16
349,684	0,28
350,05	0,34
350,415	0,41
350,781	0,44
351,146	0,56
351,512	0,7
351,877	0,77
352,242	0,82
352,608	0,92
352,973	1,05
353,338	1,19
353,703	1,31
354,068	1,37
354,433	1,42
354,798	1,49
355,164	1,56
355,528	1,63
355,893	1,72
356,258	1,75
356,623	1,83
356,988	1,97
357,353	2,04
357,718	2,13
358,082	2,2
358,447	2,3
358,812	2,42
359,176	2,52
359,541	2,62
359,905	2,74
360,27	2,85
360,634	2,91
360,999	2,99
361,363	3,06
361,728	3,13
362,092	3,18
362,456	3,21
362,821	3,27
363,185	3,35
363,549	3,44
363,913	3,53
364,277	3,62
364,641	3,67
365,005	3,77
365,369	3,81
365,733	3,92
366,097	4,01
366,461	4,06
366,825	4,12
367,189	4,19
367,553	4,27
367,916	4,4
368,28	4,5
368,644	4,53
369,007	4,6
369,371	4,72
369,734	4,89
370,098	5,08
370,461	5,26
370,825	5,36
371,188	5,47
371,552	5,57
371,915	5,64
372,278	5,77
372,642	5,89
373,005	6,05
373,368	6,2
373,731	6,31
374,094	6,41
374,457	6,52
374,82	6,69
375,183	6,81
375,546	6,89
375,909	6,93
376,272	7,04
376,635	7,15
376,998	7,24
377,361	7,29
377,723	7,36
378,086	7,4
378,449	7,46
378,811	7,52
379,174	7,6
379,537	7,68
379,899	7,74
380,262	7,79
380,624	7,84
380,987	7,9
381,349	8,01
381,711	8,09
382,074	8,18
382,436	8,25
382,798	8,36
383,16	8,41
383,522	8,49
383,884	8,57
384,247	8,61
384,609	8,69
384,971	8,77
385,333	8,79
385,695	8,82
386,056	8,87
386,418	8,87
386,78	8,88
387,142	8,91
387,504	8,91
387,865	8,95
388,227	8,95
388,589	8,95
388,95	8,99
389,312	8,98
389,673	8,99
390,035	8,97
390,396	8,98
390,758	9,01
391,119	9,04
391,48	9,08
391,842	9,12
392,203	9,13
392,564	9,13
392,925	9,17
393,286	9,2
393,648	9,22
394,009	9,28
394,37	9,32
394,731	9,39
395,092	9,44
395,452	9,47
395,813	9,52
396,174	9,56
396,535	9,55
396,896	9,6
397,257	9,67
397,617	9,75
397,978	9,75
398,338	9,8
398,699	9,87
399,06	9,93
399,42	9,95
399,781	9,97
400,141	9,97
400,501	9,96
400,862	9,96
401,222	9,98
401,582	10
401,943	10,03
402,303	10,01
402,663	10,03
403,023	10,02
403,383	10,05
403,743	10,07
404,103	10,1
404,463	10,1
404,823	10,09
405,183	10,07
405,543	10,11
405,903	10,1
406,262	10,08
406,622	10,05
406,982	10,05
407,342	10,07
407,701	10,12
408,061	10,16
408,42	10,2
408,78	10,22
409,139	10,21
409,499	10,22
409,858	10,24
410,217	10,29
410,577	10,32
410,936	10,31
411,295	10,3
411,655	10,28
412,014	10,27
412,373	10,25
412,732	10,22
413,091	10,19
413,45	10,15
413,809	10,09
414,168	10,03
414,527	9,98
414,886	9,92
415,245	9,87
415,603	9,83
415,962	9,8
416,321	9,77
416,679	9,75
417,038	9,71
417,397	9,67
417,755	9,62
418,114	9,61
418,472	9,6
418,831	9,6
419,189	9,59
419,547	9,58
419,906	9,58
420,264	9,58
420,622	9,58
420,981	9,59
421,339	9,61
421,697	9,63
422,055	9,65
422,413	9,68
422,771	9,7
423,129	9,72
423,487	9,74
423,845	9,76
424,203	9,78
424,56	9,83
424,918	9,88
425,276	9,92
425,634	9,94
425,991	9,97
426,349	10,01
426,707	10,07
427,064	10,12
427,422	10,14
427,779	10,18
428,137	10,24
428,494	10,27
428,851	10,3
429,209	10,3
429,566	10,28
429,923	10,26
430,28	10,25
430,637	10,26
430,995	10,27
431,352	10,28
431,709	10,29
432,066	10,3
432,423	10,32
432,78	10,31
433,137	10,33
433,493	10,33
433,85	10,37
434,207	10,31
434,564	10,3
434,92	10,31
435,277	10,3
435,634	10,28
435,99	10,27
436,347	10,27
436,703	10,28
437,06	10,28
437,416	10,29
437,773	10,3
438,129	10,28
438,485	10,28
438,841	10,24
439,198	10,25
439,554	10,23
439,91	10,22
440,266	10,22
440,622	10,22
440,978	10,22
441,334	10,16
441,69	10,17
442,046	10,15
442,402	10,13
442,758	10,13
443,113	10,13
443,469	10,13
443,825	10,11
444,181	10,13
444,536	10,15
444,892	10,16
445,247	10,18
445,603	10,19
445,958	10,2
446,314	10,23
446,669	10,24
447,025	10,26
447,38	10,28
447,735	10,29
448,09	10,3
448,446	10,31
448,801	10,34
449,156	10,37
449,511	10,4
449,866	10,46
450,221	10,49
450,576	10,54
450,931	10,59
451,286	10,64
451,641	10,66
451,995	10,7
452,35	10,74
452,705	10,75
453,06	10,76
453,414	10,79
453,769	10,81
454,123	10,8
454,478	10,78
454,832	10,78
455,187	10,77
455,541	10,74
455,896	10,71
456,25	10,68
456,604	10,65
456,958	10,63
457,313	10,61
457,667	10,6
458,021	10,59
458,375	10,61
458,729	10,63
459,083	10,64
459,437	10,65
459,791	10,65
460,145	10,66
460,499	10,65
460,852	10,64
461,206	10,64
461,56	10,65
461,914	10,66
462,267	10,66
462,621	10,68
462,974	10,7
463,328	10,72
463,681	10,76
464,035	10,79
464,388	10,82
464,742	10,84
465,095	10,84
465,448	10,86
465,801	10,85
466,155	10,83
466,508	10,82
466,861	10,79
467,214	10,78
467,567	10,77
467,92	10,8
468,273	10,8
468,626	10,79
468,979	10,78
469,332	10,78
469,684	10,77
470,037	10,79
470,39	10,79
470,743	10,8
471,095	10,82
471,448	10,82
471,8	10,84
472,153	10,84
472,505	10,87
472,858	10,86
473,21	10,87
473,562	10,89
473,915	10,9
474,267	10,93
474,619	10,93
474,971	10,92
475,324	10,9
475,676	10,92
476,028	10,92
476,38	10,93
476,732	10,95
477,084	10,96
477,436	10,94
477,787	10,93
478,139	10,93
478,491	10,92
478,843	10,91
479,195	10,89
479,546	10,85
479,898	10,79
480,249	10,72
480,601	10,69
480,952	10,64
481,304	10,63
481,655	10,63
482,007	10,61
482,358	10,61
482,709	10,6
483,061	10,58
483,412	10,57
483,763	10,57
484,114	10,57
484,465	10,56
484,816	10,55
485,167	10,56
485,518	10,56
485,869	10,56
486,22	10,57
486,571	10,57
486,922	10,59
487,272	10,61
487,623	10,63
487,974	10,64
488,324	10,65
488,675	10,65
489,025	10,65
489,376	10,66
489,726	10,67
490,077	10,7
490,427	10,72
490,778	10,74
491,128	10,74
491,478	10,75
491,828	10,78
492,179	10,79
492,529	10,81
492,879	10,82
493,229	10,84
493,579	10,85
493,929	10,86
494,279	10,88
494,629	10,89
494,979	10,91
495,328	10,95
495,678	11
496,028	11,04
496,378	11,08
496,727	11,11
497,077	11,14
497,426	11,14
497,776	11,12
498,125	11,12
498,475	11,14
498,824	11,15
499,174	11,16
499,523	11,19
499,872	11,2
500,221	11,22
500,571	11,21
500,92	11,21
501,269	11,23
501,618	11,23
501,967	11,22
502,316	11,25
502,665	11,24
503,014	11,26
503,363	11,26
503,711	11,25
504,06	11,24
504,409	11,23
504,758	11,22
505,106	11,24
505,455	11,24
505,803	11,24
506,152	11,24
506,5	11,23
506,849	11,22
507,197	11,23
507,546	11,22
507,894	11,24
508,242	11,23
508,59	11,23
508,939	11,22
509,287	11,23
509,635	11,2
509,983	11,22
510,331	11,22
510,679	11,23
511,027	11,23
511,375	11,24
511,723	11,26
512,07	11,28
512,418	11,3
512,766	11,31
513,114	11,34
513,461	11,34
513,809	11,34
514,156	11,34
514,504	11,32
514,851	11,33
515,199	11,3
515,546	11,29
515,893	11,28
516,241	11,31
516,588	11,31
516,935	11,32
517,282	11,33
517,63	11,34
517,977	11,35
518,324	11,36
518,671	11,37
519,018	11,38
519,365	11,37
519,711	11,36
520,058	11,37
520,405	11,36
520,752	11,38
521,099	11,39
521,445	11,42
521,792	11,42
522,138	11,42
522,485	11,42
522,832	11,44
523,178	11,45
523,524	11,44
523,871	11,45
524,217	11,45
524,563	11,4
524,91	11,33
525,256	11,27
525,602	11,24
525,948	11,24
526,294	11,23
526,64	11,22
526,986	11,22
527,332	11,21
527,678	11,21
528,024	11,21
528,37	11,22
528,716	11,2
529,061	11,21
529,407	11,2
529,753	11,2
530,098	11,21
530,444	11,22
530,789	11,2
531,135	11,21
531,48	11,21
531,826	11,22
532,171	11,26
532,516	11,29
532,862	11,31
533,207	11,32
533,552	11,3
533,897	11,34
534,242	11,35
534,587	11,35
534,932	11,37
535,277	11,37
535,622	11,37
535,967	11,39
536,312	11,41
536,657	11,43
537,001	11,45
537,346	11,45
537,691	11,44
538,035	11,45
538,38	11,41
538,724	11,41
539,069	11,43
539,413	11,43
539,758	11,43
540,102	11,43
540,446	11,42
540,791	11,44
541,135	11,44
541,479	11,44
541,823	11,44
542,167	11,43
542,512	11,44
542,856	11,44
543,2	11,42
543,543	11,42
543,887	11,42
544,231	11,43
544,575	11,43
544,919	11,46
545,262	11,47
545,606	11,5
545,95	11,52
546,293	11,53
546,637	11,54
546,98	11,57
547,324	11,57
547,667	11,62
548,011	11,63
548,354	11,64
548,697	11,64
549,04	11,63
549,384	11,61
549,727	11,59
550,07	11,59
550,413	11,6
550,756	11,57
551,099	11,55
551,442	11,54
551,785	11,56
552,128	11,55
552,47	11,55
552,813	11,53
553,156	11,52
553,499	11,51
553,841	11,48
554,184	11,49
554,526	11,48
554,869	11,46
555,211	11,46
555,554	11,45
555,896	11,43
556,238	11,41
556,581	11,41
556,923	11,39
557,265	11,38
557,607	11,35
557,949	11,36
558,291	11,35
558,633	11,34
558,975	11,32
559,317	11,3
559,659	11,3
560,001	11,29
560,343	11,29
560,685	11,26
561,026	11,24
561,368	11,2
561,71	11,15
562,051	11,09
562,393	11,08
562,734	11,05
563,076	11,06
563,417	11,07
563,759	11,07
564,1	11,08
564,441	11,07
564,782	11,05
565,124	11,02
565,465	11,02
565,806	11
566,147	10,99
566,488	10,95
566,829	10,93
567,17	10,92
567,511	10,88
567,851	10,87
568,192	10,86
568,533	10,86
568,874	10,87
569,214	10,89
569,555	10,85
569,895	10,83
570,236	10,78
570,576	10,72
570,917	10,69
571,257	10,65
571,598	10,64
571,938	10,65
572,278	10,66
572,618	10,64
572,959	10,65
573,299	10,65
573,639	10,67
573,979	10,66
574,319	10,65
574,659	10,65
574,999	10,63
575,339	10,61
575,678	10,58
576,018	10,57
576,358	10,55
576,698	10,53
577,037	10,53
577,377	10,54
577,716	10,56
578,056	10,55
578,395	10,51
578,735	10,5
579,074	10,47
579,413	10,44
579,753	10,42
580,092	10,39
580,431	10,32
580,77	10,29
581,109	10,24
581,448	10,22
581,787	10,19
582,126	10,18
582,465	10,17
582,804	10,16
583,143	10,14
583,482	10,09
583,82	10,09
584,159	10,08
584,498	10,06
584,836	10,04
585,175	10,03
585,514	10,06
585,852	10,04
586,19	10,05
586,529	10,04
586,867	10,04
587,205	10,07
587,544	10,1
587,882	10,11
588,22	10,13
588,558	10,15
588,896	10,17
589,234	10,17
589,572	10,2
589,91	10,19
590,248	10,19
590,586	10,18
590,924	10,18
591,262	10,19
591,599	10,2
591,937	10,21
592,275	10,19
592,612	10,21
592,95	10,22
593,287	10,26
593,625	10,29
593,962	10,31
594,299	10,33
594,637	10,33
594,974	10,32
595,311	10,33
595,648	10,35
595,985	10,36
596,322	10,37
596,659	10,36
596,996	10,37
597,333	10,35
597,67	10,36
598,007	10,36
598,344	10,35
598,681	10,37
599,017	10,36
599,354	10,37
599,691	10,36
600,027	10,37
600,364	10,36
600,7	10,36
601,037	10,36
601,373	10,35
601,71	10,35
602,046	10,37
602,382	10,39
602,718	10,39
603,054	10,39
603,391	10,4
603,727	10,39
604,063	10,39
604,399	10,41
604,735	10,42
605,071	10,41
605,406	10,42
605,742	10,42
606,078	10,46
606,414	10,48
606,749	10,48
607,085	10,49
607,421	10,48
607,756	10,47
608,092	10,46
608,427	10,46
608,762	10,45
609,098	10,45
609,433	10,41
609,768	10,36
610,104	10,34
610,439	10,31
610,774	10,29
611,109	10,26
611,444	10,25
611,779	10,24
612,114	10,22
612,449	10,21
612,784	10,18
613,118	10,13
613,453	10,09
613,788	10,06
614,123	10,01
614,457	9,99
614,792	9,94
615,126	9,93
615,461	9,91
615,795	9,9
616,13	9,85
616,464	9,86
616,798	9,88
617,132	9,89
617,467	9,87
617,801	9,87
618,135	9,87
618,469	9,87
618,803	9,89
619,137	9,9
619,471	9,92
619,805	9,92
620,139	9,92
620,472	9,95
620,806	9,98
621,14	9,99
621,473	9,98
621,807	9,97
622,141	9,98
622,474	9,97
622,808	9,97
623,141	9,99
623,474	10
623,808	10,02
624,141	10
624,474	10,06
624,807	10,1
625,141	10,14
625,474	10,16
625,807	10,17
626,14	10,19
626,473	10,2
626,806	10,19
627,138	10,19
627,471	10,17
627,804	10,15
628,137	10,18
628,469	10,19
628,802	10,19
629,135	10,16
629,467	10,16
629,8	10,15
630,132	10,13
630,465	10,1
630,797	10,07
631,129	10,11
631,461	10,11
631,794	10,12
632,126	10,12
632,458	10,15
632,79	10,18
633,122	10,18
633,454	10,15
633,786	10,16
634,118	10,14
634,45	10,15
634,781	10,16
635,113	10,15
635,445	10,15
635,777	10,2
636,108	10,22
636,44	10,21
636,771	10,23
637,103	10,22
637,434	10,21
637,765	10,21
638,097	10,19
638,428	10,16
638,759	10,13
639,09	10,08
639,422	10,01
639,753	9,97
640,084	9,96
640,415	9,96
640,746	9,96
641,077	9,99
641,407	9,99
641,738	10
642,069	9,99
642,4	9,99
642,73	9,97
643,061	9,97
643,392	9,96
643,722	9,99
644,053	10,03
644,383	10,03
644,713	10,04
645,044	10,05
645,374	10,07
645,704	10,09
646,034	10,09
646,365	10,09
646,695	10,06
647,025	10,09
647,355	10,1
647,685	10,09
648,015	10,11
648,344	10,1
648,674	10,07
649,004	10,05
649,334	10,04
649,663	10,02
649,993	10
650,323	10,04
650,652	10,02
650,982	10,04
651,311	10,05
651,64	10,05
651,97	10,06
652,299	10,06
652,628	10,07
652,958	10,09
653,287	10,12
653,616	10,15
653,945	10,15
654,274	10,16
654,603	10,18
654,932	10,16
655,261	10,19
655,589	10,23
655,918	10,28
656,247	10,34
656,576	10,39
656,904	10,47
657,233	10,45
657,561	10,47
657,89	10,46
658,218	10,47
658,547	10,5
658,875	10,51
659,203	10,53
659,532	10,54
659,86	10,55
660,188	10,52
660,516	10,52
660,844	10,54
661,172	10,56
661,5	10,6
661,828	10,63
662,156	10,64
662,484	10,63
662,811	10,63
663,139	10,61
663,467	10,58
663,794	10,51
664,122	10,54
664,45	10,54
664,777	10,54
665,104	10,56
665,432	10,52
665,759	10,49
666,086	10,47
666,414	10,42
666,741	10,42
667,068	10,44
667,395	10,43
667,722	10,42
668,049	10,41
668,376	10,41
668,703	10,42
669,03	10,45
669,357	10,46
669,683	10,42
670,01	10,4
670,337	10,41
670,663	10,42
670,99	10,38
671,317	10,35
671,643	10,35
671,969	10,33
672,296	10,35
672,622	10,36
672,948	10,35
673,275	10,35
673,601	10,33
673,927	10,32
674,253	10,31
674,579	10,31
674,905	10,3
675,231	10,24
675,557	10,19
675,883	10,13
676,209	10,1
676,534	10,13
676,86	10,15
677,186	10,19
677,511	10,27
677,837	10,35
678,162	10,37
678,488	10,39
678,813	10,42
679,139	10,46
679,464	10,48
679,789	10,5
680,114	10,52
680,44	10,52
680,765	10,58
681,09	10,58
681,415	10,53
681,74	10,52
682,065	10,54
682,39	10,54
682,714	10,54
683,039	10,56
683,364	10,59
683,689	10,58
684,013	10,52
684,338	10,47
684,662	10,43
684,987	10,46
685,311	10,51
685,636	10,51
685,96	10,5
686,284	10,51
686,608	10,45
686,933	10,43
687,257	10,45
687,581	10,45
687,905	10,48
688,229	10,55
688,553	10,55
688,877	10,56
689,201	10,57
689,524	10,59
689,848	10,59
690,172	10,58
690,496	10,6
690,819	10,6
691,143	10,57
691,466	10,56
691,79	10,49
692,113	10,4
692,436	10,35
692,76	10,36
693,083	10,38
693,406	10,42
693,729	10,42
694,053	10,41
694,376	10,35
694,699	10,3
695,022	10,25
695,344	10,28
695,667	10,35
695,99	10,5
696,313	10,63
696,636	10,78
696,958	10,88
697,281	10,98
697,604	11,07
697,926	11,17
698,249	11,24
698,571	11,32
698,893	11,34
699,216	11,34
699,538	11,28
699,86	11,24
700,182	11,25
700,504	11,27
700,827	11,24
701,149	11,22
701,471	11,24
701,793	11,24
702,114	11,19
702,436	11,08
702,758	10,88
703,08	10,7
703,401	10,47
703,723	10,34
704,045	10,18
704,366	10,09
704,688	10,02
705,009	9,93
705,331	9,88
705,652	9,86
705,973	9,83
706,294	9,86
706,616	9,84
706,937	9,84
707,258	9,81
707,579	9,84
707,9	9,86
708,221	9,88
708,542	9,94
708,863	10
709,183	10,08
709,504	10,18
709,825	10,26
710,145	10,35
710,466	10,39
710,787	10,45
711,107	10,49
711,427	10,46
711,748	10,42
712,068	10,46
712,388	10,53
712,709	10,64
713,029	10,71
713,349	10,76
713,669	10,76
713,989	10,82
714,309	10,91
714,629	11,01
714,949	11,08
715,269	11,08
715,589	11,06
715,908	11,06
716,228	11,06
716,548	11,1
716,867	11,11
717,187	11,08
717,506	11,09
717,826	11,05
718,145	11,11
718,465	11,23
718,784	11,23
719,103	11,23
719,422	11,19
719,741	11,16
720,061	11,2
720,38	11,35
720,699	11,47
721,018	11,54
721,336	11,6
721,655	11,71
721,974	11,93
722,293	12,12
722,612	12,29
722,93	12,37
723,249	12,42
723,567	12,57
723,886	12,72
724,204	12,79
724,523	12,97
724,841	13,08
725,159	13,16
725,477	13,33
725,796	13,49
726,114	13,76
726,432	14,02
726,75	14,17
727,068	14,23
727,386	14,29
727,704	14,46
728,022	14,64
728,339	14,73
728,657	14,72
728,975	14,74
729,292	14,89
729,61	15,05
729,928	15,14
730,245	15,2
730,562	15,33
730,88	15,48
731,197	15,61
731,514	15,69
731,832	15,77
732,149	15,79
732,466	15,84
732,783	15,77
733,1	15,78
733,417	15,9
733,734	15,94
734,051	15,98
734,368	15,93
734,684	15,91
735,001	15,98
735,318	16,14
735,634	16,28
735,951	16,32
736,268	16,36
736,584	16,45
736,9	16,48
737,217	16,52
737,533	16,63
737,849	16,83
738,166	16,98
738,482	17,18
738,798	17,38
739,114	17,58
739,43	17,82
739,746	18
740,062	18,12
740,378	18,28
740,693	18,44
741,009	18,65
741,325	18,81
741,641	18,88
741,956	18,86
742,272	18,93
742,587	18,97
742,903	19,04
743,218	19,09
743,533	19,22
743,849	19,36
744,164	19,35
744,479	19,29
744,794	19,43
745,109	19,48
745,424	19,49
745,739	19,52
746,054	19,47
746,369	19,4
746,684	19,42
746,999	19,53
747,313	19,66
747,628	19,72
747,943	19,77
748,257	19,98
748,572	20,25
748,886	20,39
749,201	20,53
749,515	20,58
749,829	20,76
750,144	20,99
750,458	21,1
750,772	21,25
751,086	21,38
751,4	21,47
751,714	21,45
752,028	21,45
752,342	21,51
752,656	21,62
752,97	21,76
753,284	21,87
753,597	22,02
753,911	22,11
754,225	22,18
754,538	22,26
754,852	22,2
755,165	22,11
755,478	22,17
755,792	22,2
756,105	22,32
756,418	22,42
756,731	22,37
757,045	22,37
757,358	22,45
757,671	22,4
757,984	22,26
758,297	22,2
758,609	22,29
758,922	22,34
759,235	22,35
759,548	22,32
759,86	22,06
760,173	21,79
760,486	21,56
760,798	21,38
761,111	21,23
761,423	21,15
761,735	21,13
762,048	21,16
762,36	21,29
762,672	21,41
762,984	21,41
763,296	21,5
763,608	21,6
763,92	21,65
764,232	21,71
764,544	21,81
764,856	22,01
765,168	22,09
765,48	22,14
765,791	22,25
766,103	22,41
766,414	22,73
766,726	23,07
767,037	23,44
767,349	23,81
767,66	24,18
767,972	24,64
768,283	25,07
768,594	25,41
768,905	25,58
769,216	25,76
769,527	26,03
769,838	26,27
770,149	26,42
770,46	26,69
770,771	27,03
771,082	27,29
771,393	27,53
771,703	27,88
772,014	28,09
772,324	28,15
772,635	28,2
772,945	28,29
773,256	28,37
773,566	28,6
773,877	28,73
774,187	28,93
774,497	28,95
774,807	29,1
775,117	29,11
775,427	29,19
775,737	29,29
776,047	29,43
776,357	29,45
776,667	29,49
776,977	29,43
777,287	29,47
777,596	29,53
777,906	29,49
778,216	29,59
778,525	29,87
778,835	30,24
779,144	30,33
779,453	30,44
779,763	30,62
780,072	30,61
780,381	30,88
780,69	30,9
781	31,01
781,309	30,95
781,618	31,08
781,927	31,29
782,235	31,53
782,544	31,75
782,853	32,01
783,162	32,22
783,471	32,25
783,779	32,34
784,088	32,56
784,396	32,84
784,705	32,88
785,013	32,71
785,322	32,46
785,63	32,48
785,938	32,36
786,246	32,19
786,554	32,31
786,863	32,24
787,171	32,35
787,479	32,45
787,787	32,52
788,094	32,63
788,402	32,57
788,71	32,62
789,018	32,51
789,326	32,32
789,633	32,31
789,941	32,52
790,248	32,59
790,556	32,68
790,863	32,71
791,171	32,66
791,478	32,9
791,785	33,26
792,092	33,54
792,399	33,91
792,707	34,18
793,014	34,24
793,321	34,35
793,628	34,63
793,934	34,8
794,241	34,87
794,548	34,83
794,855	34,87
795,161	34,79
795,468	34,71
795,775	34,81
796,081	34,97
796,388	35,05
796,694	35,14
797	35,05
797,307	34,99
797,613	34,96
797,919	34,94
798,225	34,83
798,531	34,81
798,837	34,69
799,143	34,56
799,449	34,58
799,755	34,6
800,061	34,54
800,367	34,6
800,672	34,91
800,978	35,21
801,284	35,57
801,589	35,6
801,895	35,67
802,2	35,81
802,506	35,81
802,811	35,68
803,116	35,45
803,421	35,22
803,727	35,23
804,032	35,27
804,337	35,16
804,642	35,39
804,947	35,61
805,252	35,65
805,556	35,92
805,861	36,04
806,166	35,98
806,471	35,87
806,775	35,87
807,08	35,82
807,384	35,76
807,689	35,58
807,993	35,64
808,298	36,03
808,602	36,28
808,906	36,27
809,211	36,22
809,515	36,47
809,819	36,91
810,123	37,2
810,427	37,55
810,731	37,74
811,035	37,48
811,338	37,3
811,642	37,45
811,946	37,37
812,25	37,51
812,553	37,8
812,857	37,87
813,16	37,95
813,464	37,76
813,767	37,63
814,07	37,72
814,374	37,81
814,677	37,53
814,98	37,4
815,283	37,28
815,586	37,37
815,889	37,26
816,192	37,34
816,495	37,07
816,798	36,79
817,101	36,49
817,404	36,39
817,706	36,1
818,009	35,37
818,312	34,61
818,614	33,25
818,917	31,51
819,219	29,58
819,521	27,76
819,824	26,35
820,126	25,25
820,428	24,42
820,73	23,85
821,032	23,44
821,334	23,1
821,636	22,88
821,938	22,78
822,24	22,76
822,542	22,62
822,844	22,57
823,145	22,5
823,447	22,41
823,749	22,29
824,05	22,2
824,352	22,19
824,653	22,17
824,955	22,19
825,256	22,32
825,557	22,52
825,858	22,78
826,16	23,1
826,461	23,48
826,762	23,9
827,063	24,35
827,364	24,81
827,665	25,33
827,965	25,81
828,266	26,18
828,567	26,45
828,868	26,81
829,168	27
829,469	27,1
829,769	27,32
830,07	27,66
830,37	28,06
830,67	28,5
830,971	28,96
831,271	29,44
831,571	29,67
831,871	29,95
832,171	30,07
832,471	30,16
832,771	30,33
833,071	30,34
833,371	30,32
833,671	30,31
833,971	30,31
834,27	30,39
834,57	30,65
834,869	30,92
835,169	31,19
835,468	31,42
835,768	31,82
836,067	31,98
836,367	32,2
836,666	32,56
836,965	32,99
837,264	33,58
837,563	34,28
837,862	35,11
838,161	35,85
838,46	36,78
838,759	37,56
839,058	38,31
839,356	39,13
839,655	39,94
839,954	40,63
840,252	41,41
840,551	42,42
840,849	42,69
841,148	42,89
841,446	42,75
841,744	42,68
842,043	42,74
842,341	43,11
842,639	43,81
842,937	44,27
843,235	44,48
843,533	44,58
843,831	45,16
844,129	46,06
844,427	47,31
844,724	48,72
845,022	50,27
845,32	51,64
845,617	52,77
845,915	53,85
846,212	54,6
846,51	55,06
846,807	55,29
847,104	55,81
847,402	56,32
847,699	57,31
847,996	58,28
848,293	59,17
848,59	60,21
848,887	60,06
849,184	60,1
849,481	60,44
849,778	60,78
850,074	60,95
850,371	60,65
850,668	60,17
850,964	59,17
851,261	58,61
851,557	58,44
851,854	58,6
852,15	58,87
852,446	58,99
852,743	58,7
853,039	58,67
853,335	58,85
853,631	58,8
853,927	58,8
854,223	58,77
854,519	58,94
854,815	59,3
855,111	59,96
855,406	60,42
855,702	60,96
855,998	61,38
856,293	61,57
856,589	61,79
856,884	62,3
857,18	63,62
857,475	64,72
857,77	64,75
858,066	64,92
858,361	65,08
858,656	65,44
858,951	66,07
859,246	66,14
859,541	65,78
859,836	65,91
860,131	65,46
860,426	65,11
860,72	65,03
861,015	64,69
861,31	64,43
861,604	64,53
861,899	64,91
862,193	64,91
862,487	64,96
862,782	65,13
863,076	65,24
863,37	64,82
863,664	64,08
863,959	64,29
864,253	64,21
864,547	63,97
864,841	63,87
865,135	63,92
865,428	64,27
865,722	64,92
866,016	64,78
866,31	64,77
866,603	65,2
866,897	64,88
867,19	64,45
867,484	64,39
867,777	64,34
868,07	64,42
868,364	64,13
868,657	63,68
868,95	62,83
869,243	61,73
869,536	61,2
869,829	61,12
870,122	61,12
870,415	60,36
870,708	59,93
871	59,12
871,293	57,97
871,586	56,93
871,878	56,42
872,171	56,47
872,463	56,94
872,756	56,82
873,048	56,81
873,341	56,69
873,633	56,1
873,925	55,31
874,217	53,99
874,509	53,59
874,801	53,42
875,093	54,09
875,385	54,92
875,677	55,27
875,969	55
