Data from zc74042_1_Reflection_00001.txt Node
Date: Thu Mar 12 14:48:28 ART 2020
User: Ana
Spectrometer: USB2E3644
Trigger mode: 4
Integration Time (sec): 5,000000E-2
Scans to average: 10
Electric dark correction enabled: true
Nonlinearity correction enabled: false
Boxcar width: 10
XAxis mode: Wavelengths
Number of Pixels in Spectrum: 2048
>>>>>Begin Spectral Data<<<<<
178,315	98,95
178,696	95,89
179,076	92,77
179,457	85,04
179,838	62,12
180,218	55,38
180,599	57,69
180,979	82,14
181,36	3,49
181,74	18,07
182,121	32,29
182,501	72,37
182,881	71,75
183,262	72,07
183,642	76,51
184,022	82,22
184,402	86,09
184,783	86,93
185,163	86,56
185,543	85,47
185,923	86,19
186,303	87,4
186,683	86,18
187,063	83,84
187,443	81,5
187,823	79,18
188,203	81,29
188,583	84,11
188,963	88,37
189,343	93,09
189,723	96,44
190,102	100,9
190,482	107,14
190,862	112,98
191,242	115,88
191,621	114,19
192,001	113,05
192,38	110,87
192,76	111,68
193,14	113,64
193,519	113,09
193,898	112,58
194,278	113,11
194,657	113,95
195,037	115,68
195,416	118,33
195,795	118,89
196,175	118,01
196,554	116,89
196,933	114,55
197,312	113,23
197,692	111,51
198,071	108,86
198,45	105,48
198,829	103,14
199,208	101,42
199,587	101,65
199,966	100,73
200,345	99,72
200,724	98,96
201,103	98,22
201,482	99,41
201,86	101,11
202,239	102,16
202,618	102,8
202,997	103,02
203,375	101,54
203,754	100,9
204,133	100,58
204,511	99,74
204,89	98,4
205,269	98,31
205,647	99,95
206,026	101,19
206,404	101,42
206,782	101,1
207,161	101,31
207,539	101,31
207,918	102,7
208,296	103,24
208,674	103,65
209,052	103,74
209,431	102,71
209,809	101,12
210,187	99,32
210,565	98,27
210,943	97,64
211,321	98,99
211,699	100,49
212,077	101,25
212,455	103,36
212,833	104,81
213,211	104,87
213,589	104,02
213,967	103,6
214,345	103,1
214,722	102,16
215,1	102,78
215,478	102,43
215,855	100,3
216,233	99,94
216,611	100,69
216,988	102,27
217,366	103,85
217,743	104,26
218,121	104,62
218,498	104,71
218,876	105,72
219,253	105,41
219,631	105,18
220,008	105,5
220,385	104,42
220,762	104,18
221,14	106,36
221,517	106,69
221,894	106,66
222,271	110,22
222,648	114,92
223,025	116,37
223,402	117,66
223,78	120,48
224,157	122,98
224,533	122,87
224,91	123,09
225,287	124,29
225,664	127,71
226,041	132,37
226,418	136,93
226,795	137,12
227,171	137,87
227,548	140,02
227,925	141,85
228,301	143,83
228,678	145,73
229,055	143,88
229,431	144,51
229,808	148,19
230,184	148,63
230,561	147,39
230,937	147,92
231,313	151,14
231,69	154,73
232,066	155,07
232,442	157,65
232,819	161,49
233,195	161,87
233,571	163,32
233,947	165,3
234,323	165,42
234,699	169,32
235,075	172,15
235,451	172,98
235,827	172,19
236,203	172,5
236,579	176,96
236,955	187,55
237,331	199,67
237,707	211,7
238,083	236,45
238,459	286,22
238,834	367,65
239,21	518,16
239,586	813,84
239,961	1637,27
240,337	4958,33
240,713	-9827,78
241,088	-2739,06
241,464	-1985,23
241,839	-1475,42
242,215	-882,32
242,59	-517,84
242,965	-287,58
243,341	-172,37
243,716	-119,54
244,091	-97,25
244,467	-84,59
244,842	-76,32
245,217	-69,77
245,592	-66,61
245,967	-67,06
246,343	-66,94
246,718	-67,58
247,093	-70,61
247,468	-72,34
247,843	-72,43
248,218	-70,44
248,593	-66,34
248,967	-61,78
249,342	-59,34
249,717	-58,11
250,092	-57,85
250,467	-58,82
250,841	-63,26
251,216	-71,92
251,591	-85,43
251,965	-97,2
252,34	-106,59
252,714	-117,24
253,089	-126,02
253,463	-133,18
253,838	-131,25
254,212	-125,39
254,587	-116,83
254,961	-101,34
255,335	-87,16
255,71	-73,37
256,084	-58,1
256,458	-46,9
256,832	-40,34
257,206	-36,81
257,581	-35,12
257,955	-33,56
258,329	-32,27
258,703	-30,64
259,077	-29,69
259,451	-28,73
259,825	-28,38
260,199	-28,26
260,572	-27,68
260,946	-27,43
261,32	-26,87
261,694	-26,26
262,068	-25,95
262,441	-25,65
262,815	-25,74
263,189	-25,49
263,562	-25,52
263,936	-27,01
264,309	-29,67
264,683	-32,29
265,056	-33,2
265,43	-33,06
265,803	-32,83
266,176	-32,12
266,55	-31,6
266,923	-30,92
267,296	-29,84
267,67	-28,27
268,043	-27,19
268,416	-25,55
268,789	-24,02
269,162	-22,83
269,535	-21,51
269,908	-20,49
270,281	-19,83
270,654	-19,65
271,027	-20,12
271,4	-20,43
271,773	-20,43
272,146	-20,52
272,519	-20,58
272,891	-20,71
273,264	-20,85
273,637	-20,85
274,01	-20,85
274,382	-21,25
274,755	-21,54
275,127	-21,88
275,5	-22,14
275,872	-22,19
276,245	-22,35
276,617	-22,6
276,99	-22,45
277,362	-22,84
277,734	-23,03
278,107	-23,04
278,479	-22,95
278,851	-22,47
279,223	-22,05
279,596	-21,79
279,968	-21,67
280,34	-21,32
280,712	-20,83
281,084	-20,07
281,456	-19,23
281,828	-18,24
282,2	-16,93
282,572	-15,79
282,944	-15,03
283,315	-14,63
283,687	-14,21
284,059	-14,09
284,431	-14
284,802	-13,9
285,174	-13,71
285,546	-13,47
285,917	-13,09
286,289	-12,76
286,66	-12,63
287,032	-12,46
287,403	-12,4
287,775	-12,34
288,146	-12,38
288,518	-12,44
288,889	-12,26
289,26	-12,13
289,632	-12,37
290,003	-12,93
290,374	-13,24
290,745	-13,33
291,116	-13,39
291,487	-13,44
291,858	-13,44
292,229	-13,38
292,6	-13,19
292,971	-12,54
293,342	-11,87
293,713	-11,44
294,084	-11,03
294,455	-10,44
294,826	-10,12
295,196	-9,97
295,567	-9,93
295,938	-9,74
296,308	-9,65
296,679	-9,75
297,05	-9,83
297,42	-9,71
297,791	-9,3
298,161	-9,17
298,532	-9,02
298,902	-8,8
299,272	-8,72
299,643	-8,65
300,013	-8,32
300,383	-8,14
300,754	-8,34
301,124	-8,64
301,494	-8,84
301,864	-9,05
302,234	-9,31
302,604	-9,36
302,974	-9,32
303,344	-9,15
303,714	-9,03
304,084	-8,67
304,454	-8,44
304,824	-8,31
305,194	-8,24
305,563	-8,23
305,933	-8
306,303	-7,62
306,673	-7,2
307,042	-6,76
307,412	-6,29
307,781	-6,05
308,151	-5,88
308,521	-5,7
308,89	-5,39
309,259	-5,26
309,629	-5,16
309,998	-5
310,368	-4,9
310,737	-4,81
311,106	-4,68
311,475	-4,49
311,845	-4,56
312,214	-4,59
312,583	-4,58
312,952	-4,57
313,321	-4,54
313,69	-4,41
314,059	-4,46
314,428	-4,6
314,797	-4,67
315,166	-4,87
315,535	-5,08
315,904	-5,29
316,272	-5,44
316,641	-5,71
317,01	-5,77
317,379	-5,71
317,747	-5,69
318,116	-5,62
318,484	-5,5
318,853	-5,44
319,221	-5,44
319,59	-5,39
319,958	-5,23
320,327	-5,1
320,695	-5,1
321,063	-5,02
321,432	-4,95
321,8	-4,7
322,168	-4,48
322,536	-4,49
322,905	-4,31
323,273	-4,09
323,641	-3,94
324,009	-3,93
324,377	-3,92
324,745	-3,82
325,113	-3,63
325,481	-3,45
325,849	-3,34
326,216	-3,22
326,584	-3,04
326,952	-2,88
327,32	-2,63
327,687	-2,48
328,055	-2,28
328,423	-2,09
328,79	-2,05
329,158	-2,11
329,525	-2,24
329,893	-2,28
330,26	-2,2
330,628	-2,1
330,995	-1,95
331,362	-1,86
331,73	-1,74
332,097	-1,5
332,464	-1,23
332,831	-1,02
333,199	-0,84
333,566	-0,64
333,933	-0,46
334,3	-0,4
334,667	-0,45
335,034	-0,54
335,401	-0,56
335,768	-0,53
336,135	-0,49
336,502	-0,48
336,868	-0,39
337,235	-0,31
337,602	-0,22
337,969	-0,07
338,335	-0,02
338,702	0,06
339,069	0,16
339,435	0,23
339,802	0,29
340,168	0,26
340,535	0,22
340,901	0,11
341,267	-0,01
341,634	-0,05
342	-0,02
342,366	0,06
342,733	0,12
343,099	0,23
343,465	0,28
343,831	0,34
344,197	0,47
344,563	0,52
344,929	0,6
345,295	0,74
345,661	0,85
346,027	1,01
346,393	1,02
346,759	1,03
347,125	1,07
347,491	1,06
347,856	1,06
348,222	1,05
348,588	1,19
348,953	1,3
349,319	1,31
349,684	1,41
350,05	1,56
350,415	1,73
350,781	1,83
351,146	1,92
351,512	2,01
351,877	2,01
352,242	2,04
352,608	2,1
352,973	2,09
353,338	2,08
353,703	2,09
354,068	2,15
354,433	2,29
354,798	2,42
355,164	2,56
355,528	2,69
355,893	2,75
356,258	2,76
356,623	2,87
356,988	3,04
357,353	3,09
357,718	3,1
358,082	3,07
358,447	3,07
358,812	3,13
359,176	3,18
359,541	3,27
359,905	3,34
360,27	3,37
360,634	3,37
360,999	3,42
361,363	3,45
361,728	3,47
362,092	3,48
362,456	3,51
362,821	3,54
363,185	3,6
363,549	3,68
363,913	3,71
364,277	3,66
364,641	3,6
365,005	3,62
365,369	3,64
365,733	3,73
366,097	3,83
366,461	3,88
366,825	3,93
367,189	4
367,553	4,07
367,916	4,15
368,28	4,22
368,644	4,26
369,007	4,3
369,371	4,36
369,734	4,41
370,098	4,46
370,461	4,52
370,825	4,51
371,188	4,53
371,552	4,61
371,915	4,69
372,278	4,83
372,642	4,95
373,005	5,03
373,368	5,16
373,731	5,24
374,094	5,34
374,457	5,43
374,82	5,5
375,183	5,58
375,546	5,64
375,909	5,71
376,272	5,8
376,635	5,91
376,998	5,97
377,361	6,03
377,723	6,1
378,086	6,16
378,449	6,27
378,811	6,35
379,174	6,41
379,537	6,5
379,899	6,53
380,262	6,55
380,624	6,6
380,987	6,6
381,349	6,62
381,711	6,64
382,074	6,71
382,436	6,79
382,798	6,89
383,16	6,94
383,522	7
383,884	7,04
384,247	7,06
384,609	7,12
384,971	7,17
385,333	7,19
385,695	7,21
386,056	7,21
386,418	7,19
386,78	7,2
387,142	7,18
387,504	7,19
387,865	7,23
388,227	7,24
388,589	7,25
388,95	7,28
389,312	7,26
389,673	7,26
390,035	7,26
390,396	7,25
390,758	7,27
391,119	7,28
391,48	7,3
391,842	7,31
392,203	7,31
392,564	7,31
392,925	7,37
393,286	7,38
393,648	7,4
394,009	7,46
394,37	7,48
394,731	7,51
395,092	7,52
395,452	7,53
395,813	7,57
396,174	7,6
396,535	7,6
396,896	7,62
397,257	7,65
397,617	7,69
397,978	7,72
398,338	7,74
398,699	7,79
399,06	7,85
399,42	7,87
399,781	7,88
400,141	7,9
400,501	7,87
400,862	7,9
401,222	7,9
401,582	7,89
401,943	7,91
402,303	7,93
402,663	7,97
403,023	7,96
403,383	7,98
403,743	8
404,103	8,02
404,463	8,05
404,823	8,09
405,183	8,1
405,543	8,1
405,903	8,1
406,262	8,08
406,622	8,04
406,982	8,06
407,342	8,07
407,701	8,07
408,061	8,09
408,42	8,11
408,78	8,15
409,139	8,16
409,499	8,16
409,858	8,16
410,217	8,18
410,577	8,19
410,936	8,15
411,295	8,15
411,655	8,11
412,014	8,07
412,373	8,02
412,732	7,96
413,091	7,94
413,45	7,89
413,809	7,86
414,168	7,8
414,527	7,74
414,886	7,67
415,245	7,64
415,603	7,58
415,962	7,51
416,321	7,45
416,679	7,42
417,038	7,36
417,397	7,31
417,755	7,26
418,114	7,23
418,472	7,21
418,831	7,19
419,189	7,18
419,547	7,17
419,906	7,15
420,264	7,13
420,622	7,11
420,981	7,11
421,339	7,1
421,697	7,11
422,055	7,12
422,413	7,14
422,771	7,16
423,129	7,19
423,487	7,23
423,845	7,25
424,203	7,27
424,56	7,31
424,918	7,35
425,276	7,39
425,634	7,42
425,991	7,46
426,349	7,49
426,707	7,52
427,064	7,57
427,422	7,61
427,779	7,66
428,137	7,72
428,494	7,77
428,851	7,8
429,209	7,83
429,566	7,84
429,923	7,85
430,28	7,84
430,637	7,85
430,995	7,83
431,352	7,82
431,709	7,82
432,066	7,81
432,423	7,83
432,78	7,84
433,137	7,85
433,493	7,84
433,85	7,85
434,207	7,83
434,564	7,8
434,92	7,77
435,277	7,75
435,634	7,75
435,99	7,73
436,347	7,71
436,703	7,71
437,06	7,7
437,416	7,7
437,773	7,68
438,129	7,66
438,485	7,68
438,841	7,67
439,198	7,67
439,554	7,66
439,91	7,67
440,266	7,67
440,622	7,67
440,978	7,67
441,334	7,64
441,69	7,64
442,046	7,63
442,402	7,64
442,758	7,64
443,113	7,62
443,469	7,62
443,825	7,62
444,181	7,62
444,536	7,64
444,892	7,64
445,247	7,66
445,603	7,68
445,958	7,67
446,314	7,68
446,669	7,69
447,025	7,71
447,38	7,7
447,735	7,71
448,09	7,72
448,446	7,73
448,801	7,75
449,156	7,76
449,511	7,8
449,866	7,83
450,221	7,86
450,576	7,88
450,931	7,93
451,286	7,96
451,641	8,01
451,995	8,04
452,35	8,09
452,705	8,12
453,06	8,13
453,414	8,15
453,769	8,15
454,123	8,16
454,478	8,16
454,832	8,17
455,187	8,13
455,541	8,12
455,896	8,08
456,25	8,06
456,604	8,05
456,958	8,03
457,313	8
457,667	7,99
458,021	8
458,375	7,99
458,729	8
459,083	8
459,437	8
459,791	7,98
460,145	7,98
460,499	7,97
460,852	7,97
461,206	8
461,56	8
461,914	8,01
462,267	8
462,621	8,03
462,974	8,05
463,328	8,06
463,681	8,08
464,035	8,11
464,388	8,12
464,742	8,15
465,095	8,17
465,448	8,18
465,801	8,19
466,155	8,19
466,508	8,18
466,861	8,17
467,214	8,16
467,567	8,18
467,92	8,18
468,273	8,18
468,626	8,15
468,979	8,14
469,332	8,13
469,684	8,14
470,037	8,16
470,39	8,16
470,743	8,19
471,095	8,19
471,448	8,21
471,8	8,22
472,153	8,25
472,505	8,25
472,858	8,24
473,21	8,24
473,562	8,24
473,915	8,26
474,267	8,25
474,619	8,26
474,971	8,25
475,324	8,25
475,676	8,24
476,028	8,26
476,38	8,26
476,732	8,26
477,084	8,25
477,436	8,22
477,787	8,21
478,139	8,19
478,491	8,19
478,843	8,17
479,195	8,17
479,546	8,12
479,898	8,05
480,249	8
480,601	7,96
480,952	7,93
481,304	7,91
481,655	7,91
482,007	7,89
482,358	7,88
482,709	7,87
483,061	7,86
483,412	7,85
483,763	7,85
484,114	7,85
484,465	7,83
484,816	7,82
485,167	7,81
485,518	7,8
485,869	7,8
486,22	7,8
486,571	7,8
486,922	7,81
487,272	7,82
487,623	7,84
487,974	7,85
488,324	7,85
488,675	7,85
489,025	7,85
489,376	7,85
489,726	7,86
490,077	7,87
490,427	7,88
490,778	7,89
491,128	7,9
491,478	7,92
491,828	7,96
492,179	7,98
492,529	8,02
492,879	8,05
493,229	8,08
493,579	8,09
493,929	8,11
494,279	8,12
494,629	8,12
494,979	8,15
495,328	8,19
495,678	8,22
496,028	8,26
496,378	8,28
496,727	8,31
497,077	8,34
497,426	8,36
497,776	8,36
498,125	8,38
498,475	8,38
498,824	8,39
499,174	8,38
499,523	8,38
499,872	8,38
500,221	8,4
500,571	8,41
500,92	8,4
501,269	8,4
501,618	8,41
501,967	8,45
502,316	8,47
502,665	8,48
503,014	8,49
503,363	8,5
503,711	8,51
504,06	8,51
504,409	8,5
504,758	8,49
505,106	8,5
505,455	8,48
505,803	8,48
506,152	8,45
506,5	8,45
506,849	8,46
507,197	8,45
507,546	8,45
507,894	8,45
508,242	8,47
508,59	8,45
508,939	8,43
509,287	8,42
509,635	8,41
509,983	8,43
510,331	8,44
510,679	8,44
511,027	8,44
511,375	8,46
511,723	8,48
512,07	8,49
512,418	8,51
512,766	8,53
513,114	8,54
513,461	8,57
513,809	8,59
514,156	8,58
514,504	8,59
514,851	8,56
515,199	8,54
515,546	8,52
515,893	8,54
516,241	8,56
516,588	8,57
516,935	8,59
517,282	8,58
517,63	8,59
517,977	8,6
518,324	8,61
518,671	8,63
519,018	8,62
519,365	8,61
519,711	8,61
520,058	8,63
520,405	8,64
520,752	8,63
521,099	8,64
521,445	8,66
521,792	8,65
522,138	8,68
522,485	8,69
522,832	8,69
523,178	8,68
523,524	8,68
523,871	8,69
524,217	8,67
524,563	8,65
524,91	8,61
525,256	8,57
525,602	8,56
525,948	8,54
526,294	8,52
526,64	8,5
526,986	8,48
527,332	8,46
527,678	8,45
528,024	8,45
528,37	8,45
528,716	8,46
529,061	8,46
529,407	8,45
529,753	8,45
530,098	8,44
530,444	8,45
530,789	8,44
531,135	8,44
531,48	8,45
531,826	8,45
532,171	8,47
532,516	8,48
532,862	8,49
533,207	8,5
533,552	8,51
533,897	8,54
534,242	8,55
534,587	8,57
534,932	8,6
535,277	8,61
535,622	8,61
535,967	8,62
536,312	8,63
536,657	8,66
537,001	8,68
537,346	8,71
537,691	8,71
538,035	8,71
538,38	8,71
538,724	8,68
539,069	8,68
539,413	8,69
539,758	8,68
540,102	8,68
540,446	8,68
540,791	8,67
541,135	8,68
541,479	8,69
541,823	8,69
542,167	8,68
542,512	8,68
542,856	8,68
543,2	8,67
543,543	8,68
543,887	8,66
544,231	8,68
544,575	8,68
544,919	8,69
545,262	8,73
545,606	8,75
545,95	8,78
546,293	8,81
546,637	8,8
546,98	8,84
547,324	8,84
547,667	8,88
548,011	8,89
548,354	8,89
548,697	8,9
549,04	8,9
549,384	8,9
549,727	8,88
550,07	8,87
550,413	8,87
550,756	8,87
551,099	8,89
551,442	8,87
551,785	8,9
552,128	8,9
552,47	8,88
552,813	8,86
553,156	8,85
553,499	8,84
553,841	8,84
554,184	8,83
554,526	8,81
554,869	8,79
555,211	8,82
555,554	8,82
555,896	8,79
556,238	8,78
556,581	8,75
556,923	8,76
557,265	8,76
557,607	8,76
557,949	8,76
558,291	8,76
558,633	8,75
558,975	8,71
559,317	8,69
559,659	8,66
560,001	8,63
560,343	8,62
560,685	8,59
561,026	8,58
561,368	8,58
561,71	8,56
562,051	8,52
562,393	8,51
562,734	8,47
563,076	8,47
563,417	8,47
563,759	8,46
564,1	8,45
564,441	8,44
564,782	8,38
565,124	8,35
565,465	8,34
565,806	8,33
566,147	8,29
566,488	8,28
566,829	8,29
567,17	8,28
567,511	8,27
567,851	8,28
568,192	8,27
568,533	8,22
568,874	8,21
569,214	8,22
569,555	8,18
569,895	8,17
570,236	8,17
570,576	8,14
570,917	8,14
571,257	8,11
571,598	8,1
571,938	8,12
572,278	8,13
572,618	8,12
572,959	8,12
573,299	8,13
573,639	8,11
573,979	8,09
574,319	8,08
574,659	8,07
574,999	8,06
575,339	8,04
575,678	8,07
576,018	8,08
576,358	8,04
576,698	8,04
577,037	8,02
577,377	7,99
577,716	7,97
578,056	7,95
578,395	7,95
578,735	7,93
579,074	7,91
579,413	7,89
579,753	7,88
580,092	7,84
580,431	7,82
580,77	7,82
581,109	7,82
581,448	7,79
581,787	7,77
582,126	7,75
582,465	7,75
582,804	7,71
583,143	7,7
583,482	7,73
583,82	7,73
584,159	7,74
584,498	7,74
584,836	7,76
585,175	7,76
585,514	7,76
585,852	7,77
586,19	7,75
586,529	7,74
586,867	7,73
587,205	7,75
587,544	7,77
587,882	7,77
588,22	7,76
588,558	7,78
588,896	7,79
589,234	7,79
589,572	7,78
589,91	7,78
590,248	7,75
590,586	7,72
590,924	7,72
591,262	7,73
591,599	7,71
591,937	7,71
592,275	7,68
592,612	7,69
592,95	7,69
593,287	7,72
593,625	7,72
593,962	7,73
594,299	7,75
594,637	7,77
594,974	7,8
595,311	7,82
595,648	7,82
595,985	7,82
596,322	7,83
596,659	7,84
596,996	7,84
597,333	7,86
597,67	7,86
598,007	7,86
598,344	7,84
598,681	7,86
599,017	7,88
599,354	7,91
599,691	7,91
600,027	7,92
600,364	7,91
600,7	7,94
601,037	7,99
601,373	8
601,71	7,99
602,046	8
602,382	8
602,718	8,03
603,054	8,05
603,391	8,06
603,727	8,06
604,063	8,07
604,399	8,09
604,735	8,12
605,071	8,15
605,406	8,16
605,742	8,19
606,078	8,2
606,414	8,22
606,749	8,24
607,085	8,23
607,421	8,24
607,756	8,22
608,092	8,18
608,427	8,16
608,762	8,14
609,098	8,13
609,433	8,1
609,768	8,07
610,104	8,05
610,439	8,03
610,774	8,02
611,109	8,02
611,444	7,99
611,779	7,95
612,114	7,92
612,449	7,92
612,784	7,87
613,118	7,82
613,453	7,78
613,788	7,74
614,123	7,71
614,457	7,66
614,792	7,63
615,126	7,63
615,461	7,63
615,795	7,66
616,13	7,62
616,464	7,62
616,798	7,61
617,132	7,62
617,467	7,66
617,801	7,68
618,135	7,69
618,469	7,71
618,803	7,76
619,137	7,77
619,471	7,77
619,805	7,81
620,139	7,84
620,472	7,88
620,806	7,88
621,14	7,89
621,473	7,94
621,807	7,91
622,141	7,92
622,474	7,89
622,808	7,87
623,141	7,86
623,474	7,9
623,808	7,9
624,141	7,91
624,474	7,93
624,807	7,93
625,141	7,93
625,474	7,92
625,807	7,95
626,14	7,96
626,473	7,95
626,806	7,93
627,138	7,94
627,471	7,9
627,804	7,91
628,137	7,92
628,469	7,91
628,802	7,93
629,135	7,93
629,467	7,93
629,8	7,95
630,132	7,95
630,465	7,97
630,797	7,99
631,129	8
631,461	7,97
631,794	7,93
632,126	7,92
632,458	7,9
632,79	7,88
633,122	7,88
633,454	7,87
633,786	7,89
634,118	7,88
634,45	7,93
634,781	7,94
635,113	7,95
635,445	7,95
635,777	7,97
636,108	8
636,44	8,01
636,771	7,99
637,103	7,97
637,434	7,91
637,765	7,88
638,097	7,86
638,428	7,85
638,759	7,85
639,09	7,84
639,422	7,86
639,753	7,86
640,084	7,86
640,415	7,88
640,746	7,88
641,077	7,89
641,407	7,88
641,738	7,9
642,069	7,89
642,4	7,9
642,73	7,9
643,061	7,87
643,392	7,85
643,722	7,88
644,053	7,91
644,383	7,96
644,713	8
645,044	8
645,374	8,02
645,704	8,08
646,034	8,08
646,365	8,06
646,695	8,04
647,025	8,06
647,355	8,06
647,685	8,03
648,015	8,02
648,344	8
648,674	7,98
649,004	7,99
649,334	8,01
649,663	8,07
649,993	8,09
650,323	8,15
650,652	8,13
650,982	8,15
651,311	8,13
651,64	8,08
651,97	8,09
652,299	8,11
652,628	8,1
652,958	8,09
653,287	8,12
653,616	8,12
653,945	8,09
654,274	8,1
654,603	8,11
654,932	8,12
655,261	8,14
655,589	8,17
655,918	8,18
656,247	8,23
656,576	8,24
656,904	8,27
657,233	8,28
657,561	8,3
657,89	8,35
658,218	8,37
658,547	8,42
658,875	8,42
659,203	8,39
659,532	8,4
659,86	8,41
660,188	8,42
660,516	8,48
660,844	8,52
661,172	8,56
661,5	8,59
661,828	8,61
662,156	8,64
662,484	8,65
662,811	8,66
663,139	8,63
663,467	8,58
663,794	8,55
664,122	8,55
664,45	8,53
664,777	8,49
665,104	8,51
665,432	8,49
665,759	8,5
666,086	8,49
666,414	8,46
666,741	8,46
667,068	8,48
667,395	8,46
667,722	8,49
668,049	8,49
668,376	8,48
668,703	8,47
669,03	8,47
669,357	8,47
669,683	8,48
670,01	8,48
670,337	8,52
670,663	8,55
670,99	8,51
671,317	8,54
671,643	8,56
671,969	8,53
672,296	8,53
672,622	8,52
672,948	8,53
673,275	8,51
673,601	8,51
673,927	8,46
674,253	8,47
674,579	8,42
674,905	8,39
675,231	8,37
675,557	8,38
675,883	8,36
676,209	8,36
676,534	8,33
676,86	8,32
677,186	8,32
677,511	8,37
677,837	8,44
678,162	8,48
678,488	8,49
678,813	8,55
679,139	8,6
679,464	8,63
679,789	8,66
680,114	8,71
680,44	8,72
680,765	8,72
681,09	8,67
681,415	8,67
681,74	8,68
682,065	8,7
682,39	8,7
682,714	8,69
683,039	8,68
683,364	8,71
683,689	8,7
684,013	8,71
684,338	8,68
684,662	8,64
684,987	8,63
685,311	8,65
685,636	8,62
685,96	8,63
686,284	8,65
686,608	8,63
686,933	8,61
687,257	8,64
687,581	8,67
687,905	8,7
688,229	8,68
688,553	8,68
688,877	8,67
689,201	8,67
689,524	8,71
689,848	8,75
690,172	8,7
690,496	8,67
690,819	8,61
691,143	8,59
691,466	8,6
691,79	8,55
692,113	8,5
692,436	8,43
692,76	8,4
693,083	8,41
693,406	8,47
693,729	8,44
694,053	8,46
694,376	8,46
694,699	8,48
695,022	8,57
695,344	8,61
695,667	8,7
695,99	8,79
696,313	8,88
696,636	8,96
696,958	9,05
697,281	9,22
697,604	9,31
697,926	9,37
698,249	9,39
698,571	9,43
698,893	9,44
699,216	9,49
699,538	9,48
699,86	9,51
700,182	9,53
700,504	9,58
700,827	9,57
701,149	9,53
701,471	9,53
701,793	9,5
702,114	9,49
702,436	9,42
702,758	9,32
703,08	9,15
703,401	9,02
703,723	8,92
704,045	8,8
704,366	8,71
704,688	8,66
705,009	8,68
705,331	8,71
705,652	8,76
705,973	8,72
706,294	8,67
706,616	8,64
706,937	8,58
707,258	8,51
707,579	8,52
707,9	8,59
708,221	8,65
708,542	8,69
708,863	8,75
709,183	8,82
709,504	8,92
709,825	9,06
710,145	9,11
710,466	9,17
710,787	9,2
711,107	9,27
711,427	9,31
711,748	9,28
712,068	9,26
712,388	9,26
712,709	9,35
713,029	9,43
713,349	9,42
713,669	9,46
713,989	9,52
714,309	9,6
714,629	9,66
714,949	9,74
715,269	9,83
715,589	9,89
715,908	9,93
716,228	9,95
716,548	9,97
716,867	10,02
717,187	10,04
717,506	10,11
717,826	10,11
718,145	10,15
718,465	10,26
718,784	10,35
719,103	10,44
719,422	10,48
719,741	10,56
720,061	10,66
720,38	10,76
720,699	10,83
721,018	10,82
721,336	10,86
721,655	10,82
721,974	10,79
722,293	10,8
722,612	10,91
722,93	11,02
723,249	11,1
723,567	11,19
723,886	11,3
724,204	11,42
724,523	11,51
724,841	11,57
725,159	11,61
725,477	11,69
725,796	11,74
726,114	11,9
726,432	11,99
726,75	12,13
727,068	12,27
727,386	12,45
727,704	12,67
728,022	12,85
728,339	12,96
728,657	13,03
728,975	13,1
729,292	13,15
729,61	13,17
729,928	13,23
730,245	13,37
730,562	13,51
730,88	13,62
731,197	13,75
731,514	13,87
731,832	14
732,149	14,09
732,466	14,22
732,783	14,2
733,1	14,32
733,417	14,43
733,734	14,55
734,051	14,59
734,368	14,55
734,684	14,62
735,001	14,79
735,318	14,97
735,634	15,08
735,951	15,16
736,268	15,28
736,584	15,34
736,9	15,39
737,217	15,37
737,533	15,38
737,849	15,46
738,166	15,59
738,482	15,72
738,798	15,92
739,114	16,05
739,43	16,18
739,746	16,19
740,062	16,17
740,378	16,22
740,693	16,37
741,009	16,66
741,325	16,75
741,641	16,77
741,956	16,8
742,272	16,94
742,587	17,09
742,903	17,2
743,218	17,32
743,533	17,49
743,849	17,67
744,164	17,84
744,479	18,01
744,794	18,2
745,109	18,32
745,424	18,32
745,739	18,35
746,054	18,41
746,369	18,62
746,684	18,8
746,999	18,94
747,313	18,9
747,628	18,8
747,943	18,86
748,257	18,89
748,572	19,07
748,886	19,18
749,201	19,34
749,515	19,44
749,829	19,56
750,144	19,57
750,458	19,55
750,772	19,48
751,086	19,47
751,4	19,47
751,714	19,44
752,028	19,47
752,342	19,49
752,656	19,56
752,97	19,55
753,284	19,6
753,597	19,64
753,911	19,81
754,225	19,9
754,538	19,93
754,852	20,04
755,165	20,03
755,478	20
755,792	19,91
756,105	19,95
756,418	20,05
756,731	20,09
757,045	20,16
757,358	20,22
757,671	20,28
757,984	20,36
758,297	20,43
758,609	20,52
758,922	20,67
759,235	20,75
759,548	20,73
759,86	20,66
760,173	20,47
760,486	20,17
760,798	20,03
761,111	19,9
761,423	19,68
761,735	19,6
762,048	19,64
762,36	19,62
762,672	19,58
762,984	19,58
763,296	19,66
763,608	19,72
763,92	19,76
764,232	19,7
764,544	19,67
764,856	19,85
765,168	19,98
765,48	20,09
765,791	20,23
766,103	20,44
766,414	20,67
766,726	20,99
767,037	21,45
767,349	21,88
767,66	22,33
767,972	22,99
768,283	23,53
768,594	23,82
768,905	24,26
769,216	24,74
769,527	25,05
769,838	25,19
770,149	25,51
770,46	25,95
770,771	26,38
771,082	26,6
771,393	26,62
771,703	26,63
772,014	26,76
772,324	26,71
772,635	26,68
772,945	26,74
773,256	26,99
773,566	27,17
773,877	27,19
774,187	27,24
774,497	27,32
774,807	27,4
775,117	27,53
775,427	27,61
775,737	27,6
776,047	27,65
776,357	27,83
776,667	27,82
776,977	27,88
777,287	28,1
777,596	28,27
777,906	28,34
778,216	28,5
778,525	28,61
778,835	28,89
779,144	29,14
779,453	29,3
779,763	29,26
780,072	29,26
780,381	29,5
780,69	29,53
781	29,47
781,309	29,48
781,618	29,62
781,927	29,75
782,235	29,91
782,544	30,23
782,853	30,54
783,162	30,87
783,471	30,7
783,779	30,69
784,088	30,94
784,396	31,08
784,705	31,22
785,013	31,13
785,322	31,02
785,63	30,75
785,938	30,56
786,246	30,4
786,554	30,39
786,863	30,33
787,171	30,32
787,479	30,37
787,787	30,46
788,094	30,51
788,402	30,32
788,71	30,44
789,018	30,31
789,326	29,95
789,633	29,71
789,941	29,93
790,248	29,98
790,556	29,95
790,863	30,15
791,171	30,09
791,478	30,17
791,785	30,35
792,092	30,62
792,399	30,96
792,707	31,27
793,014	31,28
793,321	31,37
793,628	31,8
793,934	32,04
794,241	32,16
794,548	32,19
794,855	32,44
795,161	32,47
795,468	32,42
795,775	32,64
796,081	32,85
796,388	32,97
796,694	33,18
797	33,08
797,307	32,98
797,613	33,19
797,919	33,33
798,225	33,52
798,531	33,55
798,837	33,65
799,143	33,68
799,449	33,92
799,755	34,17
800,061	34,06
800,367	34,05
800,672	34,2
800,978	34,56
801,284	34,71
801,589	34,73
801,895	34,92
802,2	35,15
802,506	35,36
802,811	35,45
803,116	35,53
803,421	35,72
803,727	35,67
804,032	35,4
804,337	35,23
804,642	35,04
804,947	35,12
805,252	35,06
805,556	35,13
805,861	35,24
806,166	35,17
806,471	35,33
806,775	35,34
807,08	35,29
807,384	35,03
807,689	35,09
807,993	35,18
808,298	35,56
808,602	35,9
808,906	36,06
809,211	36,31
809,515	36,46
809,819	36,51
810,123	36,42
810,427	36,75
810,731	37,12
811,035	37,45
811,338	37,55
811,642	37,6
811,946	37,59
812,25	37,55
812,553	37,64
812,857	37,77
813,16	38,01
813,464	38,23
813,767	38,4
814,07	38,39
814,374	38,48
814,677	38,17
814,98	38,02
815,283	37,81
815,586	37,23
815,889	36,84
816,192	36,81
816,495	36,96
816,798	36,72
817,101	36,4
817,404	35,91
817,706	35,62
818,009	35,1
818,312	34,45
818,614	33,17
818,917	31,2
819,219	28,65
819,521	26,3
819,824	24,32
820,126	22,86
820,428	21,87
820,73	21,25
821,032	20,64
821,334	20,16
821,636	19,89
821,938	19,8
822,24	19,71
822,542	19,6
822,844	19,54
823,145	19,49
823,447	19,38
823,749	19,27
824,05	19,16
824,352	19,09
824,653	19
824,955	18,93
825,256	18,99
825,557	19,21
825,858	19,53
826,16	19,94
826,461	20,42
826,762	20,89
827,063	21,34
827,364	21,93
827,665	22,57
827,965	23,12
828,266	23,54
828,567	23,85
828,868	24,16
829,168	24,47
829,469	24,73
829,769	25,16
830,07	25,59
830,37	25,98
830,67	26,31
830,971	26,86
831,271	27,43
831,571	27,82
831,871	28,1
832,171	28,38
832,471	28,7
832,771	29,03
833,071	29,33
833,371	29,58
833,671	29,88
833,971	29,92
834,27	29,92
834,57	30,1
834,869	30,37
835,169	30,5
835,468	30,77
835,768	31,13
836,067	31,35
836,367	31,7
836,666	32,09
836,965	32,69
837,264	33,29
837,563	34,01
837,862	34,89
838,161	35,88
838,46	36,65
838,759	37,43
839,058	38,33
839,356	38,96
839,655	39,25
839,954	39,44
840,252	40,21
840,551	41,18
840,849	41,8
841,148	42,25
841,446	42,78
841,744	42,82
842,043	42,63
842,341	42,89
842,639	43,2
842,937	43,23
843,235	43,66
843,533	44,1
843,831	45,22
844,129	46,17
844,427	47,62
844,724	49,3
845,022	50,61
845,32	51,55
845,617	52,86
845,915	53,97
846,212	55,43
846,51	56,29
846,807	56,59
847,104	57,22
847,402	57,76
847,699	58,34
847,996	58,92
848,293	59,39
848,59	59,16
848,887	59,26
849,184	60,39
849,481	60,82
849,778	61,25
850,074	61,37
850,371	61,96
850,668	61,62
850,964	61,11
851,261	61,2
851,557	61,3
851,854	62,22
852,15	63,3
852,446	63,64
852,743	63,63
853,039	63,87
853,335	64,05
853,631	63,9
853,927	63,3
854,223	62,97
854,519	63,36
854,815	64,36
855,111	64,81
855,406	64,78
855,702	65,56
855,998	66,18
856,293	65,88
856,589	65,39
856,884	66,09
857,18	66,82
857,475	67,11
857,77	67,17
858,066	66,79
858,361	66,16
858,656	65,99
858,951	65,91
859,246	66,21
859,541	66,38
859,836	66,76
860,131	67,47
860,426	67,97
860,72	68,25
861,015	67,99
861,31	68,21
861,604	68,46
861,899	68,46
862,193	68,36
862,487	68,51
862,782	68,79
863,076	68,41
863,37	68,06
863,664	67,7
863,959	67,6
864,253	67,47
864,547	67,9
864,841	68,15
865,135	68,58
865,428	69,06
865,722	69,13
866,016	68,91
866,31	69,06
866,603	69,28
866,897	69,02
867,19	68,34
867,484	67,22
867,777	65,89
868,07	65,07
868,364	64,97
868,657	65,41
868,95	66,01
869,243	66,24
869,536	66,83
869,829	67,24
870,122	68,22
870,415	68,33
870,708	68,62
871	68,59
871,293	68,82
871,586	68,61
871,878	68,11
872,171	67,57
872,463	67,32
872,756	67,24
873,048	67,67
873,341	68,23
873,633	69,27
873,925	70,75
874,217	71,29
874,509	70,95
874,801	71,04
875,093	70,95
875,385	71,28
875,677	71,07
875,969	71,23
