Data from zc74042_3_Reflection_00002.txt Node
Date: Thu Mar 12 14:50:40 ART 2020
User: Ana
Spectrometer: USB2E3644
Trigger mode: 4
Integration Time (sec): 5,000000E-2
Scans to average: 10
Electric dark correction enabled: true
Nonlinearity correction enabled: false
Boxcar width: 10
XAxis mode: Wavelengths
Number of Pixels in Spectrum: 2048
>>>>>Begin Spectral Data<<<<<
178,315	160,29
178,696	161,64
179,076	164,45
179,457	181,1
179,838	171,21
180,218	172,31
180,599	303,85
180,979	67,86
181,36	56,98
181,74	55,42
182,121	63,54
182,501	88,16
182,881	76,3
183,262	75,8
183,642	78,37
184,022	85,15
184,402	93,35
184,783	98,3
185,163	101,53
185,543	102,97
185,923	105,38
186,303	107,34
186,683	106,97
187,063	104,2
187,443	102,33
187,823	98,47
188,203	96,03
188,583	94,56
188,963	95,76
189,343	98,83
189,723	100,1
190,102	101,9
190,482	106,94
190,862	109,36
191,242	109,76
191,621	107,61
192,001	105,75
192,38	103,91
192,76	104,62
193,14	106,53
193,519	106,75
193,898	106,65
194,278	108,08
194,657	109,07
195,037	110,03
195,416	111,52
195,795	112,57
196,175	112,53
196,554	111,28
196,933	108,65
197,312	107,27
197,692	106,52
198,071	105,41
198,45	103,98
198,829	104,4
199,208	105,28
199,587	106,55
199,966	105,79
200,345	105,03
200,724	104,32
201,103	103,51
201,482	102,61
201,86	103,01
202,239	103,01
202,618	102,06
202,997	100,9
203,375	99,21
203,754	98,25
204,133	98,36
204,511	99,21
204,89	99,12
205,269	98,72
205,647	100,15
206,026	101,29
206,404	101,84
206,782	101,1
207,161	99,63
207,539	98,37
207,918	99,31
208,296	99,84
208,674	100,26
209,052	100,26
209,431	100,59
209,809	99,73
210,187	98,47
210,565	97,65
210,943	98,06
211,321	98,88
211,699	99,51
212,077	99,84
212,455	100,28
212,833	100,85
213,211	100,86
213,589	99,71
213,967	99
214,345	98,65
214,722	99,12
215,1	101,12
215,478	102,19
215,855	101,85
216,233	102,26
216,611	102,97
216,988	104,99
217,366	106,06
217,743	105,83
218,121	106,63
218,498	108,54
218,876	109,99
219,253	110,75
219,631	111,67
220,008	111,91
220,385	111,87
220,762	112,39
221,14	114,84
221,517	115,96
221,894	116,47
222,271	119,18
222,648	122,2
223,025	123,45
223,402	123,93
223,78	125,27
224,157	126,09
224,533	125,5
224,91	124,65
225,287	125,55
225,664	130,13
226,041	134,85
226,418	137,78
226,795	138,65
227,171	141,16
227,548	144,61
227,925	149,01
228,301	152,72
228,678	155,36
229,055	154,7
229,431	155,84
229,808	159,58
230,184	161,26
230,561	162,29
230,937	163,8
231,313	167,65
231,69	170,6
232,066	169,65
232,442	171,13
232,819	175,09
233,195	175,45
233,571	176,18
233,947	176,41
234,323	176,92
234,699	179,64
235,075	180,7
235,451	182,02
235,827	183,82
236,203	185,62
236,579	189,84
236,955	199,26
237,331	211,05
237,707	225,89
238,083	252,24
238,459	300,15
238,834	380,2
239,21	533,24
239,586	833,48
239,961	1690
240,337	5163,89
240,713	-10305,56
241,088	-2904,69
241,464	-2119,32
241,839	-1592,37
242,215	-955,05
242,59	-559,36
242,965	-310,48
243,341	-184,99
243,716	-125,03
244,091	-99,12
244,467	-86,48
244,842	-79,26
245,217	-73,17
245,592	-69,77
245,967	-70,32
246,343	-70,51
246,718	-71,51
247,093	-75,19
247,468	-78,19
247,843	-77,98
248,218	-75,29
248,593	-70,83
248,967	-65,72
249,342	-63,11
249,717	-61,84
250,092	-61,38
250,467	-62,96
250,841	-68,19
251,216	-77,43
251,591	-92,01
251,965	-105,06
252,34	-114
252,714	-123,45
253,089	-131,27
253,463	-138,02
253,838	-136,22
254,212	-130,01
254,587	-120,54
254,961	-104,76
255,335	-89,51
255,71	-74,8
256,084	-59,07
256,458	-47,33
256,832	-39,97
257,206	-35,79
257,581	-33,39
257,955	-32,05
258,329	-30,52
258,703	-28,59
259,077	-27,7
259,451	-26,77
259,825	-26,71
260,199	-27,07
260,572	-27,03
260,946	-27,14
261,32	-26,65
261,694	-25,88
262,068	-25,58
262,441	-25,56
262,815	-25,9
263,189	-25,98
263,562	-26,68
263,936	-29,16
264,309	-32,68
264,683	-36,2
265,056	-37,93
265,43	-38,64
265,803	-38,26
266,176	-37,88
266,55	-37,88
266,923	-36,9
267,296	-35,75
267,67	-33,64
268,043	-31,95
268,416	-29,91
268,789	-27,87
269,162	-26,04
269,535	-24,38
269,908	-23,11
270,281	-22,14
270,654	-21,8
271,027	-21,96
271,4	-21,99
271,773	-21,6
272,146	-21,29
272,519	-20,93
272,891	-20,77
273,264	-20,91
273,637	-21,2
274,01	-21,2
274,382	-21,43
274,755	-21,63
275,127	-21,82
275,5	-22,23
275,872	-22,1
276,245	-22,05
276,617	-22,6
276,99	-23,21
277,362	-24,22
277,734	-24,51
278,107	-24,66
278,479	-24,36
278,851	-23,82
279,223	-23,5
279,596	-23,27
279,968	-23,14
280,34	-22,87
280,712	-22,51
281,084	-21,69
281,456	-20,61
281,828	-19,36
282,2	-18,04
282,572	-17,18
282,944	-16,52
283,315	-16,16
283,687	-15,91
284,059	-15,98
284,431	-15,83
284,802	-15,37
285,174	-14,92
285,546	-14,75
285,917	-14,4
286,289	-14,12
286,66	-13,99
287,032	-13,58
287,403	-13,26
287,775	-13,09
288,146	-13,22
288,518	-13,41
288,889	-13,42
289,26	-13,53
289,632	-14,02
290,003	-14,43
290,374	-14,61
290,745	-14,71
291,116	-14,72
291,487	-14,65
291,858	-14,43
292,229	-14,12
292,6	-13,94
292,971	-13,41
293,342	-12,95
293,713	-12,47
294,084	-12,01
294,455	-11,45
294,826	-11,25
295,196	-11,27
295,567	-11,38
295,938	-11,17
296,308	-10,93
296,679	-10,79
297,05	-10,62
297,42	-10,3
297,791	-9,97
298,161	-9,82
298,532	-9,64
298,902	-9,43
299,272	-9,36
299,643	-9,29
300,013	-9,04
300,383	-8,79
300,754	-8,77
301,124	-8,83
301,494	-9,06
301,864	-9,2
302,234	-9,48
302,604	-9,69
302,974	-9,76
303,344	-9,59
303,714	-9,4
304,084	-8,96
304,454	-8,67
304,824	-8,61
305,194	-8,66
305,563	-8,69
305,933	-8,53
306,303	-8,37
306,673	-8,21
307,042	-7,99
307,412	-7,69
307,781	-7,39
308,151	-7,18
308,521	-6,98
308,89	-6,71
309,259	-6,51
309,629	-6,44
309,998	-6,46
310,368	-6,37
310,737	-6,18
311,106	-6,06
311,475	-5,93
311,845	-5,98
312,214	-5,9
312,583	-5,79
312,952	-5,84
313,321	-5,93
313,69	-5,83
314,059	-5,7
314,428	-5,65
314,797	-5,61
315,166	-5,72
315,535	-5,94
315,904	-6,27
316,272	-6,51
316,641	-6,68
317,01	-6,58
317,379	-6,52
317,747	-6,24
318,116	-5,95
318,484	-5,78
318,853	-5,69
319,221	-5,76
319,59	-5,79
319,958	-5,76
320,327	-5,78
320,695	-5,57
321,063	-5,2
321,432	-4,95
321,8	-4,7
322,168	-4,51
322,536	-4,54
322,905	-4,25
323,273	-3,9
323,641	-3,58
324,009	-3,4
324,377	-3,32
324,745	-3,34
325,113	-3,24
325,481	-3,06
325,849	-2,9
326,216	-2,66
326,584	-2,41
326,952	-2,24
327,32	-2,04
327,687	-1,92
328,055	-1,65
328,423	-1,47
328,79	-1,42
329,158	-1,43
329,525	-1,53
329,893	-1,57
330,26	-1,45
330,628	-1,46
330,995	-1,51
331,362	-1,49
331,73	-1,36
332,097	-1,23
332,464	-1,05
332,831	-0,87
333,199	-0,84
333,566	-0,79
333,933	-0,78
334,3	-0,75
334,667	-0,63
335,034	-0,52
335,401	-0,46
335,768	-0,41
336,135	-0,33
336,502	-0,26
336,868	-0,11
337,235	0,04
337,602	0,19
337,969	0,32
338,335	0,5
338,702	0,69
339,069	0,76
339,435	0,74
339,802	0,84
340,168	0,89
340,535	0,9
340,901	0,79
341,267	0,68
341,634	0,71
342	0,75
342,366	0,82
342,733	0,82
343,099	0,9
343,465	0,88
343,831	0,84
344,197	0,84
344,563	0,75
344,929	0,72
345,295	0,81
345,661	0,92
346,027	0,9
346,393	0,84
346,759	0,89
347,125	0,98
347,491	0,97
347,856	0,92
348,222	0,88
348,588	1,03
348,953	1,18
349,319	1,17
349,684	1,2
350,05	1,19
350,415	1,26
350,781	1,34
351,146	1,45
351,512	1,55
351,877	1,64
352,242	1,7
352,608	1,73
352,973	1,73
353,338	1,76
353,703	1,86
354,068	1,92
354,433	2
354,798	2,04
355,164	2,1
355,528	2,24
355,893	2,33
356,258	2,36
356,623	2,43
356,988	2,53
357,353	2,62
357,718	2,7
358,082	2,75
358,447	2,76
358,812	2,85
359,176	2,93
359,541	2,99
359,905	3,1
360,27	3,21
360,634	3,29
360,999	3,34
361,363	3,33
361,728	3,41
362,092	3,42
362,456	3,45
362,821	3,53
363,185	3,57
363,549	3,63
363,913	3,69
364,277	3,74
364,641	3,74
365,005	3,76
365,369	3,75
365,733	3,75
366,097	3,83
366,461	3,85
366,825	3,89
367,189	3,94
367,553	3,99
367,916	4,12
368,28	4,21
368,644	4,29
369,007	4,39
369,371	4,47
369,734	4,6
370,098	4,72
370,461	4,78
370,825	4,8
371,188	4,84
371,552	4,9
371,915	4,95
372,278	5,11
372,642	5,21
373,005	5,37
373,368	5,52
373,731	5,61
374,094	5,71
374,457	5,8
374,82	5,91
375,183	5,98
375,546	5,99
375,909	6,04
376,272	6,15
376,635	6,27
376,998	6,32
377,361	6,38
377,723	6,43
378,086	6,48
378,449	6,58
378,811	6,68
379,174	6,78
379,537	6,85
379,899	6,86
380,262	6,91
380,624	6,95
380,987	7
381,349	7,04
381,711	7,1
382,074	7,15
382,436	7,2
382,798	7,29
383,16	7,32
383,522	7,37
383,884	7,38
384,247	7,37
384,609	7,41
384,971	7,44
385,333	7,45
385,695	7,48
386,056	7,53
386,418	7,54
386,78	7,53
387,142	7,54
387,504	7,54
387,865	7,56
388,227	7,55
388,589	7,55
388,95	7,57
389,312	7,58
389,673	7,59
390,035	7,59
390,396	7,56
390,758	7,59
391,119	7,59
391,48	7,6
391,842	7,6
392,203	7,61
392,564	7,62
392,925	7,67
393,286	7,7
393,648	7,72
394,009	7,74
394,37	7,74
394,731	7,76
395,092	7,81
395,452	7,84
395,813	7,89
396,174	7,91
396,535	7,9
396,896	7,89
397,257	7,93
397,617	7,98
397,978	8
398,338	8,02
398,699	8,05
399,06	8,12
399,42	8,17
399,781	8,19
400,141	8,18
400,501	8,2
400,862	8,2
401,222	8,19
401,582	8,2
401,943	8,19
402,303	8,21
402,663	8,2
403,023	8,2
403,383	8,19
403,743	8,19
404,103	8,22
404,463	8,25
404,823	8,3
405,183	8,3
405,543	8,34
405,903	8,35
406,262	8,37
406,622	8,35
406,982	8,33
407,342	8,36
407,701	8,39
408,061	8,38
408,42	8,38
408,78	8,39
409,139	8,41
409,499	8,43
409,858	8,45
410,217	8,46
410,577	8,47
410,936	8,46
411,295	8,45
411,655	8,44
412,014	8,41
412,373	8,35
412,732	8,29
413,091	8,23
413,45	8,18
413,809	8,12
414,168	8,06
414,527	8,02
414,886	7,95
415,245	7,9
415,603	7,88
415,962	7,84
416,321	7,8
416,679	7,77
417,038	7,72
417,397	7,67
417,755	7,63
418,114	7,59
418,472	7,57
418,831	7,55
419,189	7,54
419,547	7,53
419,906	7,51
420,264	7,49
420,622	7,47
420,981	7,47
421,339	7,46
421,697	7,46
422,055	7,45
422,413	7,48
422,771	7,49
423,129	7,49
423,487	7,52
423,845	7,54
424,203	7,55
424,56	7,59
424,918	7,64
425,276	7,67
425,634	7,7
425,991	7,74
426,349	7,78
426,707	7,8
427,064	7,83
427,422	7,87
427,779	7,93
428,137	7,99
428,494	8,07
428,851	8,12
429,209	8,14
429,566	8,17
429,923	8,16
430,28	8,16
430,637	8,18
430,995	8,15
431,352	8,14
431,709	8,14
432,066	8,14
432,423	8,13
432,78	8,13
433,137	8,15
433,493	8,13
433,85	8,15
434,207	8,13
434,564	8,12
434,92	8,13
435,277	8,1
435,634	8,07
435,99	8,03
436,347	8,01
436,703	8,01
437,06	8
437,416	7,99
437,773	7,97
438,129	7,95
438,485	7,96
438,841	7,96
439,198	7,96
439,554	7,95
439,91	7,95
440,266	7,96
440,622	7,95
440,978	7,95
441,334	7,92
441,69	7,92
442,046	7,9
442,402	7,88
442,758	7,88
443,113	7,87
443,469	7,87
443,825	7,86
444,181	7,87
444,536	7,89
444,892	7,9
445,247	7,92
445,603	7,94
445,958	7,96
446,314	7,97
446,669	7,97
447,025	7,99
447,38	7,98
447,735	7,99
448,09	8
448,446	8,02
448,801	8,04
449,156	8,06
449,511	8,08
449,866	8,13
450,221	8,17
450,576	8,22
450,931	8,26
451,286	8,29
451,641	8,31
451,995	8,33
452,35	8,37
452,705	8,38
453,06	8,38
453,414	8,38
453,769	8,37
454,123	8,38
454,478	8,39
454,832	8,4
455,187	8,39
455,541	8,36
455,896	8,33
456,25	8,3
456,604	8,27
456,958	8,26
457,313	8,23
457,667	8,19
458,021	8,19
458,375	8,2
458,729	8,22
459,083	8,24
459,437	8,24
459,791	8,23
460,145	8,23
460,499	8,25
460,852	8,24
461,206	8,26
461,56	8,26
461,914	8,25
462,267	8,25
462,621	8,26
462,974	8,27
463,328	8,3
463,681	8,33
464,035	8,37
464,388	8,38
464,742	8,4
465,095	8,43
465,448	8,44
465,801	8,42
466,155	8,41
466,508	8,39
466,861	8,38
467,214	8,38
467,567	8,38
467,92	8,38
468,273	8,39
468,626	8,37
468,979	8,37
469,332	8,38
469,684	8,37
470,037	8,37
470,39	8,38
470,743	8,39
471,095	8,37
471,448	8,37
471,8	8,39
472,153	8,41
472,505	8,41
472,858	8,42
473,21	8,45
473,562	8,46
473,915	8,49
474,267	8,49
474,619	8,47
474,971	8,47
475,324	8,45
475,676	8,47
476,028	8,47
476,38	8,47
476,732	8,47
477,084	8,47
477,436	8,47
477,787	8,45
478,139	8,43
478,491	8,45
478,843	8,43
479,195	8,41
479,546	8,38
479,898	8,34
480,249	8,27
480,601	8,21
480,952	8,18
481,304	8,15
481,655	8,13
482,007	8,11
482,358	8,1
482,709	8,08
483,061	8,06
483,412	8,06
483,763	8,05
484,114	8,05
484,465	8,05
484,816	8,04
485,167	8,04
485,518	8,04
485,869	8,03
486,22	8,03
486,571	8,02
486,922	8,02
487,272	8,02
487,623	8,05
487,974	8,07
488,324	8,08
488,675	8,08
489,025	8,08
489,376	8,1
489,726	8,11
490,077	8,13
490,427	8,15
490,778	8,16
491,128	8,18
491,478	8,19
491,828	8,21
492,179	8,23
492,529	8,26
492,879	8,29
493,229	8,31
493,579	8,34
493,929	8,36
494,279	8,38
494,629	8,4
494,979	8,41
495,328	8,43
495,678	8,46
496,028	8,51
496,378	8,55
496,727	8,58
497,077	8,61
497,426	8,62
497,776	8,61
498,125	8,62
498,475	8,61
498,824	8,62
499,174	8,61
499,523	8,63
499,872	8,63
500,221	8,62
500,571	8,63
500,92	8,63
501,269	8,64
501,618	8,67
501,967	8,69
502,316	8,69
502,665	8,68
503,014	8,68
503,363	8,68
503,711	8,69
504,06	8,69
504,409	8,68
504,758	8,68
505,106	8,69
505,455	8,69
505,803	8,69
506,152	8,68
506,5	8,69
506,849	8,68
507,197	8,66
507,546	8,66
507,894	8,66
508,242	8,67
508,59	8,66
508,939	8,63
509,287	8,63
509,635	8,63
509,983	8,66
510,331	8,68
510,679	8,7
511,027	8,7
511,375	8,72
511,723	8,75
512,07	8,77
512,418	8,79
512,766	8,81
513,114	8,84
513,461	8,86
513,809	8,87
514,156	8,86
514,504	8,89
514,851	8,87
515,199	8,87
515,546	8,83
515,893	8,83
516,241	8,85
516,588	8,85
516,935	8,86
517,282	8,85
517,63	8,86
517,977	8,85
518,324	8,85
518,671	8,85
519,018	8,85
519,365	8,85
519,711	8,85
520,058	8,85
520,405	8,84
520,752	8,85
521,099	8,85
521,445	8,86
521,792	8,87
522,138	8,87
522,485	8,86
522,832	8,88
523,178	8,9
523,524	8,88
523,871	8,89
524,217	8,89
524,563	8,88
524,91	8,83
525,256	8,79
525,602	8,77
525,948	8,74
526,294	8,72
526,64	8,69
526,986	8,67
527,332	8,65
527,678	8,64
528,024	8,65
528,37	8,65
528,716	8,64
529,061	8,64
529,407	8,64
529,753	8,64
530,098	8,63
530,444	8,63
530,789	8,64
531,135	8,63
531,48	8,62
531,826	8,62
532,171	8,63
532,516	8,66
532,862	8,67
533,207	8,69
533,552	8,71
533,897	8,73
534,242	8,74
534,587	8,75
534,932	8,76
535,277	8,76
535,622	8,76
535,967	8,78
536,312	8,79
536,657	8,81
537,001	8,84
537,346	8,85
537,691	8,87
538,035	8,86
538,38	8,87
538,724	8,88
539,069	8,88
539,413	8,88
539,758	8,88
540,102	8,88
540,446	8,87
540,791	8,86
541,135	8,87
541,479	8,88
541,823	8,89
542,167	8,88
542,512	8,92
542,856	8,91
543,2	8,91
543,543	8,91
543,887	8,91
544,231	8,92
544,575	8,93
544,919	8,91
545,262	8,94
545,606	8,94
545,95	8,96
546,293	8,96
546,637	8,97
546,98	8,98
547,324	8,98
547,667	9,02
548,011	9,03
548,354	9,05
548,697	9,06
549,04	9,05
549,384	9,06
549,727	9,01
550,07	9,04
550,413	9,02
550,756	9,04
551,099	9,06
551,442	9,06
551,785	9,08
552,128	9,09
552,47	9,1
552,813	9,11
553,156	9,1
553,499	9,1
553,841	9,11
554,184	9,11
554,526	9,1
554,869	9,06
555,211	9,05
555,554	9,03
555,896	8,99
556,238	8,99
556,581	8,98
556,923	8,98
557,265	8,96
557,607	8,96
557,949	8,93
558,291	8,92
558,633	8,88
558,975	8,84
559,317	8,81
559,659	8,77
560,001	8,74
560,343	8,72
560,685	8,7
561,026	8,67
561,368	8,65
561,71	8,63
562,051	8,64
562,393	8,64
562,734	8,6
563,076	8,61
563,417	8,6
563,759	8,58
564,1	8,56
564,441	8,53
564,782	8,51
565,124	8,5
565,465	8,49
565,806	8,47
566,147	8,46
566,488	8,45
566,829	8,46
567,17	8,46
567,511	8,44
567,851	8,42
568,192	8,4
568,533	8,39
568,874	8,41
569,214	8,39
569,555	8,37
569,895	8,36
570,236	8,35
570,576	8,32
570,917	8,3
571,257	8,29
571,598	8,28
571,938	8,27
572,278	8,25
572,618	8,22
572,959	8,22
573,299	8,21
573,639	8,2
573,979	8,19
574,319	8,18
574,659	8,2
574,999	8,2
575,339	8,2
575,678	8,2
576,018	8,17
576,358	8,14
576,698	8,11
577,037	8,11
577,377	8,08
577,716	8,08
578,056	8,09
578,395	8,08
578,735	8,07
579,074	8,05
579,413	8,02
579,753	8,01
580,092	7,97
580,431	7,94
580,77	7,93
581,109	7,88
581,448	7,85
581,787	7,79
582,126	7,78
582,465	7,75
582,804	7,72
583,143	7,71
583,482	7,71
583,82	7,74
584,159	7,73
584,498	7,73
584,836	7,71
585,175	7,7
585,514	7,71
585,852	7,72
586,19	7,72
586,529	7,72
586,867	7,71
587,205	7,74
587,544	7,74
587,882	7,74
588,22	7,76
588,558	7,77
588,896	7,81
589,234	7,8
589,572	7,78
589,91	7,78
590,248	7,76
590,586	7,77
590,924	7,74
591,262	7,77
591,599	7,79
591,937	7,8
592,275	7,79
592,612	7,79
592,95	7,79
593,287	7,81
593,625	7,84
593,962	7,86
594,299	7,88
594,637	7,92
594,974	7,95
595,311	7,99
595,648	8,01
595,985	8,01
596,322	8,02
596,659	8,06
596,996	8,08
597,333	8,09
597,67	8,09
598,007	8,1
598,344	8,09
598,681	8,1
599,017	8,11
599,354	8,12
599,691	8,14
600,027	8,16
600,364	8,17
600,7	8,19
601,037	8,2
601,373	8,21
601,71	8,2
602,046	8,23
602,382	8,21
602,718	8,21
603,054	8,21
603,391	8,23
603,727	8,22
604,063	8,23
604,399	8,23
604,735	8,25
605,071	8,25
605,406	8,25
605,742	8,25
606,078	8,27
606,414	8,27
606,749	8,27
607,085	8,28
607,421	8,3
607,756	8,3
608,092	8,29
608,427	8,3
608,762	8,31
609,098	8,28
609,433	8,29
609,768	8,27
610,104	8,26
610,439	8,24
610,774	8,26
611,109	8,24
611,444	8,22
611,779	8,2
612,114	8,17
612,449	8,17
612,784	8,15
613,118	8,14
613,453	8,12
613,788	8,08
614,123	8,03
614,457	7,98
614,792	7,93
615,126	7,94
615,461	7,89
615,795	7,86
616,13	7,83
616,464	7,81
616,798	7,82
617,132	7,82
617,467	7,82
617,801	7,82
618,135	7,82
618,469	7,83
618,803	7,86
619,137	7,91
619,471	7,92
619,805	7,89
620,139	7,89
620,472	7,92
620,806	7,93
621,14	7,93
621,473	7,95
621,807	7,94
622,141	7,94
622,474	7,95
622,808	7,95
623,141	7,95
623,474	7,97
623,808	8
624,141	8,04
624,474	8,1
624,807	8,14
625,141	8,15
625,474	8,17
625,807	8,16
626,14	8,14
626,473	8,16
626,806	8,2
627,138	8,19
627,471	8,17
627,804	8,19
628,137	8,23
628,469	8,26
628,802	8,29
629,135	8,28
629,467	8,28
629,8	8,28
630,132	8,29
630,465	8,29
630,797	8,29
631,129	8,25
631,461	8,2
631,794	8,17
632,126	8,18
632,458	8,2
632,79	8,21
633,122	8,23
633,454	8,21
633,786	8,19
634,118	8,16
634,45	8,2
634,781	8,17
635,113	8,13
635,445	8,1
635,777	8,09
636,108	8,08
636,44	8,08
636,771	8,08
637,103	8,09
637,434	8,07
637,765	8,03
638,097	8,02
638,428	8,02
638,759	8,01
639,09	7,98
639,422	7,93
639,753	7,9
640,084	7,89
640,415	7,9
640,746	7,93
641,077	7,96
641,407	7,98
641,738	8
642,069	8,04
642,4	8,07
642,73	8,06
643,061	8,07
643,392	8,09
643,722	8,1
644,053	8,11
644,383	8,12
644,713	8,14
645,044	8,14
645,374	8,16
645,704	8,17
646,034	8,15
646,365	8,18
646,695	8,19
647,025	8,23
647,355	8,25
647,685	8,28
648,015	8,29
648,344	8,28
648,674	8,3
649,004	8,32
649,334	8,32
649,663	8,38
649,993	8,41
650,323	8,43
650,652	8,42
650,982	8,42
651,311	8,41
651,64	8,4
651,97	8,45
652,299	8,45
652,628	8,46
652,958	8,51
653,287	8,53
653,616	8,54
653,945	8,53
654,274	8,52
654,603	8,49
654,932	8,47
655,261	8,49
655,589	8,53
655,918	8,55
656,247	8,58
656,576	8,58
656,904	8,6
657,233	8,61
657,561	8,65
657,89	8,69
658,218	8,72
658,547	8,78
658,875	8,76
659,203	8,78
659,532	8,81
659,86	8,83
660,188	8,84
660,516	8,86
660,844	8,9
661,172	8,92
661,5	8,95
661,828	9
662,156	9
662,484	8,95
662,811	8,89
663,139	8,85
663,467	8,85
663,794	8,83
664,122	8,85
664,45	8,83
664,777	8,81
665,104	8,85
665,432	8,83
665,759	8,85
666,086	8,85
666,414	8,85
666,741	8,83
667,068	8,83
667,395	8,82
667,722	8,79
668,049	8,76
668,376	8,74
668,703	8,73
669,03	8,74
669,357	8,74
669,683	8,81
670,01	8,85
670,337	8,85
670,663	8,88
670,99	8,85
671,317	8,87
671,643	8,84
671,969	8,77
672,296	8,75
672,622	8,75
672,948	8,75
673,275	8,75
673,601	8,72
673,927	8,7
674,253	8,7
674,579	8,73
674,905	8,74
675,231	8,77
675,557	8,77
675,883	8,76
676,209	8,78
676,534	8,75
676,86	8,74
677,186	8,74
677,511	8,75
677,837	8,78
678,162	8,82
678,488	8,93
678,813	9,01
679,139	9,06
679,464	9,11
679,789	9,12
680,114	9,13
680,44	9,16
680,765	9,2
681,09	9,19
681,415	9,15
681,74	9,16
682,065	9,17
682,39	9,19
682,714	9,17
683,039	9,15
683,364	9,17
683,689	9,16
684,013	9,17
684,338	9,17
684,662	9,19
684,987	9,19
685,311	9,14
685,636	9,11
685,96	9,04
686,284	9,02
686,608	8,98
686,933	8,95
687,257	8,92
687,581	8,92
687,905	9,01
688,229	9,09
688,553	9,08
688,877	9,08
689,201	9,08
689,524	9,15
689,848	9,2
690,172	9,17
690,496	9,16
690,819	9,11
691,143	9,1
691,466	9,05
691,79	8,97
692,113	8,92
692,436	8,9
692,76	9
693,083	9,04
693,406	9,05
693,729	9,07
694,053	9,1
694,376	9,09
694,699	9,03
695,022	9
695,344	9,06
695,667	9,11
695,99	9,15
696,313	9,23
696,636	9,3
696,958	9,38
697,281	9,45
697,604	9,52
697,926	9,54
698,249	9,59
698,571	9,61
698,893	9,63
699,216	9,62
699,538	9,55
699,86	9,5
700,182	9,52
700,504	9,5
700,827	9,5
701,149	9,5
701,471	9,52
701,793	9,48
702,114	9,44
702,436	9,38
702,758	9,31
703,08	9,16
703,401	9,02
703,723	8,92
704,045	8,84
704,366	8,79
704,688	8,77
705,009	8,7
705,331	8,8
705,652	8,83
705,973	8,83
706,294	8,83
706,616	8,82
706,937	8,79
707,258	8,8
707,579	8,78
707,9	8,77
708,221	8,75
708,542	8,77
708,863	8,76
709,183	8,82
709,504	8,89
709,825	8,98
710,145	9,04
710,466	9,1
710,787	9,2
711,107	9,29
711,427	9,32
711,748	9,37
712,068	9,4
712,388	9,43
712,709	9,53
713,029	9,64
713,349	9,7
713,669	9,73
713,989	9,81
714,309	9,97
714,629	10,07
714,949	10,11
715,269	10,16
715,589	10,21
715,908	10,22
716,228	10,25
716,548	10,33
716,867	10,39
717,187	10,41
717,506	10,38
717,826	10,3
718,145	10,33
718,465	10,39
718,784	10,39
719,103	10,48
719,422	10,49
719,741	10,49
720,061	10,49
720,38	10,64
720,699	10,77
721,018	10,76
721,336	10,85
721,655	11
721,974	11,14
722,293	11,25
722,612	11,38
722,93	11,51
723,249	11,63
723,567	11,73
723,886	11,9
724,204	12,07
724,523	12,28
724,841	12,37
725,159	12,42
725,477	12,54
725,796	12,63
726,114	12,82
726,432	12,99
726,75	13,23
727,068	13,32
727,386	13,41
727,704	13,51
728,022	13,58
728,339	13,72
728,657	13,76
728,975	13,84
729,292	13,97
729,61	14,01
729,928	13,99
730,245	14,08
730,562	14,17
730,88	14,21
731,197	14,31
731,514	14,4
731,832	14,57
732,149	14,68
732,466	14,79
732,783	14,83
733,1	14,93
733,417	15,02
733,734	15,08
734,051	15,11
734,368	15,15
734,684	15,27
735,001	15,29
735,318	15,39
735,634	15,49
735,951	15,54
736,268	15,62
736,584	15,71
736,9	15,87
737,217	15,94
737,533	16,08
737,849	16,19
738,166	16,34
738,482	16,43
738,798	16,61
739,114	16,74
739,43	16,91
739,746	16,99
740,062	17,05
740,378	17,15
740,693	17,25
741,009	17,43
741,325	17,52
741,641	17,6
741,956	17,7
742,272	17,83
742,587	17,99
742,903	18,2
743,218	18,45
743,533	18,55
743,849	18,72
744,164	18,81
744,479	18,84
744,794	18,97
745,109	19,1
745,424	19,13
745,739	19,13
746,054	19,15
746,369	19,16
746,684	19,27
746,999	19,43
747,313	19,45
747,628	19,49
747,943	19,54
748,257	19,65
748,572	19,77
748,886	19,88
749,201	19,93
749,515	19,94
749,829	19,94
750,144	19,95
750,458	19,94
750,772	19,94
751,086	20,03
751,4	20,05
751,714	20
752,028	19,98
752,342	20,02
752,656	20,1
752,97	20,28
753,284	20,46
753,597	20,55
753,911	20,75
754,225	20,89
754,538	20,88
754,852	20,93
755,165	21
755,478	21,05
755,792	21,09
756,105	21,14
756,418	21,19
756,731	21,23
757,045	21,27
757,358	21,43
757,671	21,57
757,984	21,69
758,297	21,8
758,609	21,96
758,922	22,04
759,235	22
759,548	21,82
759,86	21,6
760,173	21,39
760,486	21,18
760,798	20,92
761,111	20,82
761,423	20,69
761,735	20,61
762,048	20,6
762,36	20,62
762,672	20,71
762,984	20,83
763,296	20,96
763,608	21,13
763,92	21,24
764,232	21,3
764,544	21,39
764,856	21,47
765,168	21,47
765,48	21,54
765,791	21,69
766,103	21,86
766,414	22,07
766,726	22,41
767,037	22,79
767,349	23,22
767,66	23,65
767,972	24,15
768,283	24,66
768,594	25,02
768,905	25,32
769,216	25,57
769,527	25,77
769,838	25,89
770,149	26,01
770,46	26,24
770,771	26,45
771,082	26,65
771,393	26,97
771,703	27,27
772,014	27,5
772,324	27,72
772,635	27,98
772,945	28,12
773,256	28,2
773,566	28,3
773,877	28,46
774,187	28,55
774,497	28,6
774,807	28,69
775,117	28,84
775,427	28,98
775,737	29,08
776,047	29,08
776,357	29,03
776,667	29,07
776,977	29,14
777,287	29,31
777,596	29,46
777,906	29,3
778,216	29,4
778,525	29,65
778,835	29,68
779,144	29,97
779,453	30,18
779,763	30,39
780,072	30,58
780,381	30,82
780,69	30,96
781	31,06
781,309	31,16
781,618	31,19
781,927	31,36
782,235	31,42
782,544	31,71
782,853	32,15
783,162	32,45
783,471	32,36
783,779	32,36
784,088	32,29
784,396	32,21
784,705	32,12
785,013	31,98
785,322	31,88
785,63	31,45
785,938	31,14
786,246	30,74
786,554	30,69
786,863	30,63
787,171	30,73
787,479	30,88
787,787	30,94
788,094	31,07
788,402	30,97
788,71	30,92
789,018	30,87
789,326	30,69
789,633	30,58
789,941	30,77
790,248	30,88
790,556	30,91
790,863	31,06
791,171	31,23
791,478	31,49
791,785	31,69
792,092	32,01
792,399	32,45
792,707	32,91
793,014	32,91
793,321	32,92
793,628	33,15
793,934	33,13
794,241	33,04
794,548	32,91
794,855	33,05
795,161	33,26
795,468	33,2
795,775	33,12
796,081	33,25
796,388	33,34
796,694	33,38
797	33,23
797,307	33,29
797,613	33,11
797,919	33,01
798,225	33,23
798,531	33,32
798,837	33,27
799,143	33,3
799,449	33,38
799,755	33,53
800,061	33,48
800,367	33,78
800,672	33,99
800,978	34,26
801,284	34,36
801,589	34,39
801,895	34,56
802,2	34,97
802,506	35,17
802,811	35,05
803,116	35,05
803,421	35,43
803,727	35,54
804,032	35,89
804,337	35,98
804,642	36,02
804,947	36,21
805,252	36,44
805,556	36,59
805,861	36,81
806,166	36,7
806,471	36,6
806,775	36,48
807,08	36,55
807,384	36,54
807,689	36,57
807,993	36,64
808,298	36,84
808,602	36,88
808,906	36,83
809,211	37,16
809,515	37,44
809,819	37,74
810,123	38,15
810,427	38,31
810,731	38,39
811,035	38,25
811,338	38,26
811,642	38,31
811,946	38,21
812,25	38,27
812,553	38,63
812,857	39,2
813,16	39,26
813,464	39,19
813,767	39,34
814,07	39,37
814,374	39,43
814,677	39,49
814,98	39,58
815,283	39,55
815,586	39
815,889	38,6
816,192	38,14
816,495	37,64
816,798	37,11
817,101	36,71
817,404	36,12
817,706	35,43
818,009	35
818,312	34,61
818,614	33,52
818,917	31,72
819,219	29,42
819,521	27,45
819,824	25,98
820,126	24,76
820,428	23,86
820,73	23,26
821,032	22,74
821,334	22,3
821,636	21,97
821,938	21,86
822,24	21,71
822,542	21,59
822,844	21,55
823,145	21,53
823,447	21,48
823,749	21,47
824,05	21,42
824,352	21,32
824,653	21,23
824,955	21,13
825,256	21,14
825,557	21,29
825,858	21,53
826,16	21,82
826,461	22,2
826,762	22,65
827,063	23,09
827,364	23,62
827,665	24,24
827,965	24,85
828,266	25,34
828,567	25,84
828,868	26,38
829,168	26,83
829,469	27,06
829,769	27,29
830,07	27,65
830,37	28,14
830,67	28,62
830,971	29,05
831,271	29,65
831,571	30,19
831,871	30,65
832,171	30,93
832,471	31,01
832,771	31,24
833,071	31,37
833,371	31,31
833,671	31,17
833,971	31,1
834,27	31,15
834,57	31,3
834,869	31,41
835,169	31,3
835,468	31,26
835,768	31,57
836,067	32
836,367	32,34
836,666	32,79
836,965	33,2
837,264	33,74
837,563	34,54
837,862	35,48
838,161	36,38
838,46	37,46
838,759	38,43
839,058	39,13
839,356	39,78
839,655	40,51
839,954	41,27
840,252	42,09
840,551	42,66
840,849	42,82
841,148	43,19
841,446	43,72
841,744	43,89
842,043	43,84
842,341	43,83
842,639	43,76
842,937	43,86
843,235	44,38
843,533	45,15
843,831	46,2
844,129	47,02
844,427	47,91
844,724	49,09
845,022	50,57
845,32	52,02
845,617	53,3
845,915	54,72
846,212	55,85
846,51	56,84
846,807	57,75
847,104	58,57
847,402	59,14
847,699	59,74
847,996	60,89
848,293	61,62
848,59	61,91
848,887	62,67
849,184	63,06
849,481	62,99
849,778	63,03
850,074	62,43
850,371	62,54
850,668	63,09
850,964	62,96
851,261	62,89
851,557	62,68
851,854	63,43
852,15	63,63
852,446	63,87
852,743	63,45
853,039	63,16
853,335	63,53
853,631	63,66
853,927	63,68
854,223	62,69
854,519	62,17
854,815	62,51
855,111	62,62
855,406	63,3
855,702	64,26
855,998	64,97
856,293	65,63
856,589	66,03
856,884	66,09
857,18	66,23
857,475	66,11
857,77	66,23
858,066	65,69
858,361	65,01
858,656	65,08
858,951	65,71
859,246	65,85
859,541	66,02
859,836	66,14
860,131	66,07
860,426	66,55
860,72	67,4
861,015	68,21
861,31	68,48
861,604	67,87
861,899	67,39
862,193	66,98
862,487	66,5
862,782	66,31
863,076	66,5
863,37	66,78
863,664	66,85
863,959	66,69
864,253	66,52
864,547	66,83
864,841	66,82
865,135	66,52
865,428	66,71
865,722	66,23
866,016	65,96
866,31	65,94
866,603	66,75
866,897	67,34
867,19	66,77
867,484	66,4
867,777	65,95
868,07	65,95
868,364	66,42
868,657	66,88
868,95	66,52
869,243	66,18
869,536	66,31
869,829	66,02
870,122	66,11
870,415	66,06
870,708	66,22
871	66,23
871,293	66,55
871,586	67,25
871,878	67,99
872,171	67,95
872,463	67,2
872,756	67,05
873,048	66,66
873,341	66,41
873,633	66,53
873,925	67,27
874,217	67,23
874,509	66,37
874,801	65,81
875,093	66,61
875,385	66,74
875,677	65,99
875,969	66,58
